!FRM4SOC_CP
!RADCAL
# radiometric calibration coefs & linearity, lamp and panel data

# comments start with # (ignored by the processor)
# no empty lines between the parameter signatures in [] and the parameter values
# parameters are case insensitive
# parameters can be inserted in any order, except the first two signatures
# columns are tab- or space-delimited

[VERSION]
0.1

[CALDATE]
2025-06-13 09:27:40

[CALLAB]
Tartu Observatory

[USER]
Riho Vendt

[LAMP_ID]
TO_7

[PANEL_ID]
SG3151/1

[DEVICE]
SAM_8329

# Correlated color temperature (K)
[LAMP_CCT]
2977.5

# wavelength (nm)	bandwidth (nm)	irradiance (mW/m2/nm)	uncertainty (%, k=2)
[LAMPDATA]
300.00	0.00	1.3608	1.50
310.00	0.00	1.9372	1.50
320.00	0.00	2.6358	1.50
330.00	0.00	3.5407	1.40
340.00	0.00	4.6380	1.40
350.00	0.00	5.9914	1.30
360.00	0.00	7.6027	1.30
370.00	0.00	9.4767	1.30
380.00	0.00	11.6461	1.30
390.00	0.00	14.1614	1.30
400.00	0.00	16.9229	1.20
410.00	0.00	19.9376	1.20
420.00	0.00	23.2677	1.20
430.00	0.00	26.8840	1.20
440.00	0.00	30.7867	1.20
450.00	0.00	35.0344	1.20
460.00	0.00	39.4359	1.20
470.00	0.00	44.1128	1.20
480.00	0.00	48.9542	1.20
490.00	0.00	54.0952	1.20
500.00	0.00	59.2452	1.20
510.00	0.00	64.6754	1.20
520.00	0.00	69.9903	1.20
530.00	0.00	75.6024	1.20
540.00	0.00	81.1717	1.20
550.00	0.00	86.8574	1.20
560.00	0.00	92.5627	1.20
570.00	0.00	98.1045	1.20
580.00	0.00	103.8197	1.20
590.00	0.00	109.4881	1.20
600.00	0.00	114.8400	1.20
610.00	0.00	120.2473	1.20
620.00	0.00	125.5000	1.20
630.00	0.00	130.7785	1.20
640.00	0.00	135.7258	1.20
650.00	0.00	140.4710	1.20
660.00	0.00	145.4703	1.20
670.00	0.00	149.9922	1.20
680.00	0.00	154.2653	1.20
690.00	0.00	158.5131	1.20
700.00	0.00	162.6457	1.20
710.00	0.00	166.4744	1.20
720.00	0.00	170.1194	1.20
730.00	0.00	173.4370	1.20
740.00	0.00	176.6738	1.20
750.00	0.00	179.7362	1.20
760.00	0.00	182.6709	1.20
770.00	0.00	185.3328	1.20
780.00	0.00	187.6319	1.20
790.00	0.00	189.9388	1.20
800.00	0.00	192.0141	1.20
810.00	0.00	193.9241	1.20
820.00	0.00	195.5564	1.20
830.00	0.00	197.0500	1.20
840.00	0.00	198.4559	1.20
850.00	0.00	199.6272	1.20
860.00	0.00	200.6580	1.20
870.00	0.00	201.4082	1.20
880.00	0.00	202.1077	1.20
890.00	0.00	202.6360	1.20
900.00	0.00	203.0186	1.20
910.00	0.00	203.2563	1.20
920.00	0.00	203.4473	1.20
930.00	0.00	203.4458	1.20
940.00	0.00	203.3470	1.20
950.00	0.00	203.1248	1.20
960.00	0.00	202.7085	1.20
970.00	0.00	202.2934	1.20
980.00	0.00	201.7270	1.20
990.00	0.00	202.1353	1.30
1000.00	0.00	202.4295	1.30
[END_OF_LAMPDATA]

[AMBIENT_TEMP]
21.0

# pixel no	wavelength (nm)	irradiance responsivity (unit depends on the device class)	uncertainty (%, k=2)	dark1	dark2 (content depends on the instrument class)	raw1	stdev1	raw2	stdev2
[CALDATA]
0	302.08	6	0.00	12	0.000000	256	0.00	128	0.00
1	305.42	0.022942	8.28	0.014806	0.012873	74.31	0.95	76.00	1.48
2	308.75	0.022948	7.93	0.014678	0.012781	88.16	1.01	87.70	1.59
3	312.08	0.028141	5.49	0.014723	0.012895	112.51	0.81	115.90	1.46
4	315.41	0.032407	5.17	0.014808	0.012756	148.01	0.75	150.20	1.77
5	318.75	0.038519	3.63	0.014781	0.012852	195.66	0.98	198.00	1.44
6	322.08	0.042641	3.82	0.014755	0.012924	251.16	1.01	248.20	1.93
7	325.42	0.047667	3.05	0.014710	0.012891	311.81	0.91	307.30	1.69
8	328.75	0.054079	2.82	0.014766	0.012715	376.96	0.85	377.70	1.91
9	332.09	0.058531	2.39	0.014739	0.012751	456.16	0.75	453.00	1.56
10	335.43	0.065673	2.17	0.014777	0.012917	547.41	0.83	550.10	1.37
11	338.76	0.071794	2.15	0.014742	0.012923	657.91	0.81	659.10	1.69
12	342.10	0.079096	2.03	0.014739	0.012812	789.31	0.97	791.70	1.48
13	345.44	0.087239	2.03	0.014733	0.012990	953.46	0.85	954.10	1.97
14	348.78	0.096922	1.88	0.014764	0.012895	1151.61	0.76	1152.70	1.59
15	352.12	0.106883	1.87	0.014747	0.012806	1389.66	0.89	1385.50	1.72
16	355.46	0.118310	1.83	0.014784	0.012969	1661.21	1.06	1659.00	1.65
17	358.80	0.128952	1.79	0.014740	0.013008	1954.11	0.74	1953.50	1.54
18	362.14	0.137792	1.79	0.014770	0.012924	2249.21	1.02	2250.60	1.63
19	365.48	0.142907	1.78	0.014728	0.012775	2519.01	1.05	2517.30	1.79
20	368.82	0.145192	1.76	0.014776	0.012727	2745.51	1.13	2746.70	1.86
21	372.16	0.144157	1.76	0.014762	0.013080	2927.36	0.92	2928.20	1.53
22	375.51	0.141629	1.75	0.014779	0.012801	3076.71	0.90	3080.70	1.43
23	378.85	0.138470	1.73	0.014760	0.012795	3225.06	0.93	3226.30	1.66
24	382.19	0.135893	1.74	0.014772	0.012852	3384.96	0.89	3386.00	1.88
25	385.54	0.134813	1.74	0.014748	0.012844	3582.01	0.67	3585.50	1.84
26	388.88	0.134567	1.72	0.014787	0.012905	3815.11	0.93	3817.90	2.05
27	392.22	0.135976	1.70	0.014750	0.012930	4106.36	0.94	4106.90	1.59
28	395.57	0.138367	1.67	0.014777	0.012836	4438.91	1.01	4438.60	2.30
29	398.91	0.141622	1.63	0.014740	0.013103	4819.06	1.10	4818.10	1.77
30	402.26	0.146134	1.63	0.014769	0.012916	5261.66	0.97	5261.40	2.17
31	405.61	0.152395	1.62	0.014763	0.012909	5800.36	0.96	5799.30	1.84
32	408.95	0.160212	1.61	0.014797	0.012799	6431.11	1.03	6432.40	1.71
33	412.30	0.169342	1.61	0.014772	0.012706	7167.21	1.07	7169.20	2.11
34	415.65	0.179896	1.60	0.014804	0.013011	8017.66	1.25	8021.40	1.87
35	418.99	0.191392	1.59	0.014767	0.012892	8981.46	1.20	8982.50	1.53
36	422.34	0.204061	1.60	0.014790	0.013129	10065.76	1.11	10066.40	1.86
37	425.69	0.217199	1.59	0.014777	0.012930	11248.91	1.18	11249.30	1.76
38	429.03	0.230034	1.58	0.014792	0.013176	12490.51	1.24	12492.80	1.99
39	432.38	0.241769	1.59	0.014759	0.012700	13738.51	1.26	13749.10	1.98
40	435.73	0.251110	1.58	0.014802	0.013105	14942.51	1.27	14950.80	1.61
41	439.08	0.257543	1.58	0.014740	0.012829	16025.46	1.21	16034.20	2.24
42	442.43	0.261031	1.58	0.014800	0.013075	16975.86	1.23	16986.00	1.69
43	445.78	0.261275	1.58	0.014795	0.012939	17745.46	1.40	17757.20	2.02
44	449.13	0.260096	1.57	0.014793	0.013093	18432.01	1.16	18445.20	2.06
45	452.48	0.257192	1.57	0.014777	0.012930	18980.91	1.15	18998.50	1.93
46	455.83	0.253277	1.57	0.014813	0.012996	19449.86	1.30	19469.00	1.98
47	459.17	0.248921	1.56	0.014785	0.012998	19866.76	1.30	19890.50	2.14
48	462.52	0.244413	1.56	0.014797	0.012770	20268.71	1.60	20294.50	2.42
49	465.87	0.239761	1.56	0.014784	0.012967	20648.11	1.74	20674.10	1.70
50	469.22	0.234670	1.56	0.014823	0.012882	20959.16	1.37	20990.80	2.25
51	472.57	0.228993	1.56	0.014783	0.012714	21198.51	1.60	21231.10	2.43
52	475.92	0.223085	1.56	0.014809	0.012941	21386.51	1.50	21420.30	1.95
53	479.27	0.217582	1.55	0.014784	0.012711	21579.16	1.12	21617.00	1.78
54	482.63	0.213058	1.55	0.014815	0.012858	21866.56	1.50	21904.00	2.19
55	485.98	0.209835	1.55	0.014805	0.013090	22266.21	1.55	22307.10	1.88
56	489.33	0.207914	1.55	0.014796	0.012995	22787.81	1.54	22835.80	2.39
57	492.68	0.207378	1.55	0.014782	0.013111	23446.26	1.47	23500.30	1.69
58	496.03	0.207802	1.55	0.014829	0.013059	24232.66	1.90	24284.20	2.85
59	499.38	0.209801	1.55	0.014790	0.013062	25178.31	1.67	25247.30	2.13
60	502.73	0.212861	1.55	0.014833	0.012943	26320.76	1.82	26393.80	2.21
61	506.08	0.217255	1.55	0.014778	0.012858	27643.51	1.64	27732.60	1.92
62	509.43	0.222629	1.54	0.014835	0.012909	29140.16	1.78	29242.50	2.13
63	512.78	0.228835	1.54	0.014801	0.012947	30759.51	2.03	30879.20	2.23
64	516.13	0.234645	1.54	0.014810	0.012972	32363.86	1.73	32502.50	2.39
65	519.48	0.239514	1.54	0.014808	0.012833	33885.31	2.42	34040.20	2.18
66	522.83	0.243295	1.54	0.014843	0.013018	35309.06	2.28	35484.90	2.77
67	526.18	0.246136	1.54	0.014805	0.013064	36645.21	2.29	36834.80	2.76
68	529.53	0.248735	1.54	0.014835	0.012942	37958.86	1.80	38167.90	2.50
69	532.88	0.251602	1.54	0.014793	0.012953	39314.56	2.62	39547.50	2.54
70	536.23	0.254320	1.54	0.014848	0.012896	40681.91	1.97	40931.80	2.56
71	539.58	0.257288	1.54	0.014830	0.012981	42097.86	2.45	42372.50	2.64
72	542.93	0.259915	1.54	0.014843	0.012942	43487.91	2.23	43790.30	2.76
73	546.28	0.261901	1.54	0.014803	0.012978	44799.41	2.58	45125.30	2.91
74	549.63	0.263351	1.54	0.014849	0.012961	46042.91	2.73	46387.00	2.25
75	552.98	0.264182	1.54	0.014826	0.012928	47171.86	2.13	47541.90	2.06
76	556.33	0.264250	1.54	0.014836	0.012947	48165.36	2.34	48561.90	3.55
77	559.68	0.263631	1.54	0.014826	0.012970	49045.41	2.68	49460.40	2.61
78	563.02	0.262601	1.54	0.014844	0.012863	49807.91	2.41	50245.80	2.91
79	566.37	0.260994	1.53	0.014809	0.013102	50451.91	2.47	50908.80	2.87
80	569.72	0.258845	1.53	0.014841	0.012907	50987.31	2.57	51455.70	3.37
81	573.07	0.256032	1.54	0.014810	0.013066	51388.36	2.75	51875.30	3.15
82	576.42	0.252287	1.54	0.014850	0.012955	51590.71	2.72	52087.90	2.56
83	579.76	0.247878	1.54	0.014811	0.013177	51619.96	2.60	52127.70	3.19
84	583.11	0.242394	1.54	0.014850	0.012952	51404.61	3.03	51910.30	3.30
85	586.46	0.236749	1.54	0.014816	0.012964	51103.71	2.87	51609.60	3.03
86	589.80	0.232217	1.54	0.014843	0.013053	50987.76	2.47	51502.40	2.91
87	593.15	0.228983	1.54	0.014841	0.013055	51086.86	3.04	51613.60	2.54
88	596.50	0.226507	1.54	0.014842	0.013076	51319.01	2.61	51863.30	2.84
89	599.84	0.224352	1.54	0.014835	0.012980	51615.56	2.66	52171.10	2.99
90	603.19	0.221677	1.54	0.014859	0.013186	51791.06	2.93	52357.30	3.18
91	606.53	0.218183	1.54	0.014812	0.012980	51744.51	2.77	52321.20	2.33
92	609.88	0.213623	1.54	0.014865	0.012926	51429.86	2.48	52004.20	2.11
93	613.22	0.207958	1.54	0.014813	0.013190	50815.16	2.45	51377.00	2.71
94	616.57	0.201671	1.54	0.014858	0.013121	50006.61	2.52	50550.40	2.32
95	619.91	0.195219	1.54	0.014820	0.013049	49110.96	2.73	49633.60	2.28
96	623.25	0.188891	1.54	0.014845	0.013278	48206.96	2.27	48712.60	2.78
97	626.59	0.183057	1.54	0.014825	0.013087	47375.51	2.54	47867.60	3.02
98	629.94	0.177928	1.54	0.014856	0.012945	46697.71	2.43	47170.20	2.59
99	633.28	0.173536	1.54	0.014829	0.012855	46135.41	2.25	46598.10	2.27
100	636.62	0.169836	1.54	0.014858	0.013183	45726.36	2.27	46179.40	3.33
101	639.96	0.166924	1.54	0.014839	0.013003	45486.36	2.59	45939.30	2.62
102	643.30	0.164552	1.54	0.014847	0.012957	45371.36	2.47	45822.40	2.68
103	646.64	0.162797	1.54	0.014830	0.012924	45401.26	2.57	45854.90	3.04
104	649.98	0.160825	1.54	0.014869	0.013088	45353.46	2.05	45808.40	3.00
105	653.32	0.157919	1.55	0.014828	0.012908	45062.66	2.20	45517.50	2.38
106	656.66	0.154736	1.55	0.014872	0.013214	44675.01	2.23	45124.90	2.90
107	660.00	0.151897	1.55	0.014822	0.012928	44355.16	1.98	44803.80	2.93
108	663.33	0.149638	1.55	0.014856	0.012973	44163.91	2.51	44606.10	2.27
109	666.67	0.148060	1.55	0.014837	0.013072	44137.36	2.28	44584.00	2.58
110	670.01	0.147105	1.55	0.014861	0.013062	44280.41	2.49	44734.50	2.55
111	673.34	0.146506	1.55	0.014829	0.012989	44526.16	2.68	44982.40	2.98
112	676.68	0.146216	1.55	0.014854	0.013219	44841.21	2.59	45308.30	2.04
113	680.01	0.145848	1.55	0.014830	0.013054	45121.91	2.38	45600.70	3.00
114	683.35	0.145258	1.55	0.014863	0.013053	45344.01	2.40	45832.30	2.68
115	686.68	0.144508	1.55	0.014827	0.013026	45520.81	2.12	46010.60	2.43
116	690.01	0.143627	1.56	0.014867	0.012881	45621.61	2.73	46124.40	2.45
117	693.35	0.142582	1.56	0.014827	0.012831	45685.76	2.78	46191.00	2.37
118	696.68	0.141764	1.56	0.014867	0.013022	45802.91	2.45	46315.50	2.39
119	700.01	0.141100	1.56	0.014834	0.012881	45963.46	2.10	46481.90	3.02
120	703.34	0.140724	1.56	0.014868	0.013025	46198.21	2.08	46723.50	2.91
121	706.67	0.140661	1.56	0.014824	0.013043	46526.66	2.61	47060.90	2.90
122	710.00	0.140867	1.56	0.014869	0.013029	46927.06	2.47	47476.50	3.11
123	713.32	0.141137	1.57	0.014836	0.013075	47344.91	2.19	47910.10	2.64
124	716.65	0.141473	1.57	0.014865	0.013196	47785.11	2.58	48363.50	2.59
125	719.98	0.141624	1.57	0.014842	0.013182	48144.16	2.48	48741.80	3.01
126	723.30	0.141508	1.57	0.014871	0.013064	48427.76	2.33	49026.80	2.87
127	726.63	0.141170	1.57	0.014846	0.012999	48608.91	2.86	49217.60	2.95
128	729.95	0.140429	1.58	0.014854	0.013144	48652.06	3.05	49263.70	2.97
129	733.28	0.139321	1.58	0.014835	0.013020	48565.36	2.49	49180.30	2.79
130	736.60	0.137999	1.58	0.014883	0.012889	48413.76	2.63	49020.20	3.12
131	739.92	0.136426	1.58	0.014833	0.013117	48153.46	2.63	48754.30	2.24
132	743.24	0.134855	1.58	0.014884	0.013000	47873.11	2.59	48473.60	2.69
133	746.56	0.133168	1.59	0.014822	0.012991	47555.81	2.65	48146.70	3.06
134	749.88	0.131525	1.59	0.014867	0.013069	47233.96	2.31	47819.20	2.69
135	753.20	0.129838	1.59	0.014850	0.012972	46893.26	2.45	47470.80	2.41
136	756.52	0.128051	1.59	0.014872	0.013059	46508.51	2.73	47075.50	2.74
137	759.84	0.126107	1.59	0.014840	0.012972	46048.06	2.50	46606.70	2.68
138	763.15	0.124065	1.60	0.014868	0.013239	45540.06	2.59	46086.10	3.53
139	766.47	0.121879	1.60	0.014835	0.013010	44961.06	2.37	45496.10	3.05
140	769.78	0.119491	1.60	0.014866	0.012974	44299.26	2.64	44819.60	2.38
141	773.10	0.117052	1.61	0.014838	0.013045	43596.36	2.11	44100.10	2.93
142	776.41	0.114503	1.61	0.014868	0.013089	42831.91	2.43	43321.60	2.57
143	779.72	0.111740	1.61	0.014823	0.012874	41979.56	2.10	42451.60	2.60
144	783.03	0.108761	1.61	0.014863	0.013148	41057.11	2.01	41505.20	2.30
145	786.34	0.105627	1.62	0.014827	0.013149	40066.01	2.44	40488.00	2.84
146	789.65	0.102445	1.62	0.014863	0.012914	39023.46	2.25	39428.70	2.35
147	792.96	0.099273	1.62	0.014837	0.013082	37975.91	2.39	38360.50	2.15
148	796.27	0.096110	1.63	0.014854	0.013227	36926.51	1.96	37286.30	2.39
149	799.57	0.093032	1.63	0.014829	0.013118	35888.56	1.81	36228.20	3.01
150	802.88	0.090100	1.63	0.014874	0.013068	34887.76	1.91	35211.70	2.50
151	806.18	0.087244	1.64	0.014836	0.012996	33907.46	1.90	34215.00	1.79
152	809.48	0.084447	1.64	0.014853	0.013254	32949.56	2.54	33235.70	2.40
153	812.79	0.081801	1.65	0.014827	0.013079	32015.76	1.83	32291.20	1.90
154	816.09	0.079117	1.65	0.014873	0.013111	31068.41	1.84	31327.20	2.58
155	819.39	0.076422	1.65	0.014832	0.013126	30105.21	1.78	30348.40	2.01
156	822.69	0.073731	1.66	0.014849	0.013069	29137.86	2.17	29365.00	2.32
157	825.98	0.070985	1.66	0.014830	0.013115	28141.81	1.45	28351.90	2.36
158	829.28	0.068230	1.67	0.014851	0.012957	27124.86	1.52	27322.60	2.54
159	832.58	0.065475	1.67	0.014841	0.013165	26106.76	1.85	26290.10	2.54
160	835.87	0.062690	1.68	0.014864	0.013078	25078.91	1.58	25243.20	2.10
161	839.16	0.059960	1.68	0.014834	0.013030	24050.96	1.71	24203.50	2.49
162	842.46	0.057357	1.69	0.014827	0.013033	23061.81	1.76	23204.50	2.35
163	845.75	0.054838	1.69	0.014827	0.013035	22100.41	1.59	22233.20	2.36
164	849.04	0.052427	1.70	0.014868	0.013077	21189.31	1.71	21305.80	2.02
165	852.32	0.050235	1.70	0.014834	0.012942	20336.26	1.23	20450.00	2.46
166	855.61	0.048108	1.71	0.014858	0.012950	19523.51	1.41	19625.30	1.96
167	858.90	0.046218	1.71	0.014835	0.013203	18786.36	1.17	18884.60	1.84
168	862.18	0.044470	1.72	0.014859	0.013058	18109.01	1.42	18199.90	2.37
169	865.47	0.042820	1.72	0.014805	0.012871	17463.26	1.27	17548.70	1.86
170	868.75	0.041338	1.73	0.014834	0.013016	16878.31	1.49	16961.10	1.78
171	872.03	0.039914	1.74	0.014820	0.013005	16328.86	1.23	16402.60	2.11
172	875.31	0.038587	1.74	0.014837	0.013166	15806.06	1.42	15876.60	1.76
173	878.59	0.037370	1.75	0.014807	0.012970	15323.61	1.50	15392.40	1.51
174	881.87	0.036182	1.76	0.014862	0.012939	14850.26	1.14	14917.20	2.09
175	885.14	0.035014	1.76	0.014816	0.013099	14394.51	1.22	14453.90	2.03
176	888.42	0.033879	1.77	0.014855	0.012793	13943.36	1.16	13998.80	1.90
177	891.69	0.032775	1.78	0.014827	0.012912	13493.61	1.37	13550.00	1.69
178	894.96	0.031626	1.79	0.014849	0.013053	13039.11	1.13	13088.60	1.67
179	898.24	0.030475	1.79	0.014824	0.012931	12577.41	0.88	12622.40	1.93
180	901.51	0.029343	1.80	0.014837	0.013049	12111.71	1.09	12157.20	1.76
181	904.77	0.028177	1.81	0.014823	0.013078	11642.36	1.13	11682.70	1.68
182	908.04	0.027050	1.82	0.014841	0.013010	11181.56	0.93	11219.70	1.71
183	911.31	0.025946	1.83	0.014823	0.012958	10724.91	1.01	10763.40	1.67
184	914.57	0.024833	1.84	0.014846	0.013076	10269.26	0.96	10305.70	2.00
185	917.83	0.023742	1.85	0.014823	0.013092	9829.26	1.21	9860.00	1.94
186	921.09	0.022708	1.85	0.014860	0.013051	9403.26	1.00	9432.50	1.92
187	924.35	0.021744	1.86	0.014814	0.013066	9007.01	1.05	9033.80	1.76
188	927.61	0.020818	1.87	0.014844	0.013077	8622.16	1.12	8648.20	1.73
189	930.87	0.019901	1.88	0.014826	0.013242	8248.36	1.13	8270.00	1.94
190	934.13	0.018984	1.89	0.014837	0.012940	7866.26	1.04	7887.50	1.83
191	937.38	0.018059	1.91	0.014814	0.013013	7474.66	0.90	7498.30	2.10
192	940.63	0.017152	1.92	0.014843	0.012992	7105.31	1.03	7124.00	2.37
193	943.88	0.016368	1.93	0.014790	0.013031	6774.06	1.20	6794.10	1.77
194	947.13	0.015653	1.94	0.014854	0.013136	6485.61	0.96	6499.70	1.82
195	950.38	0.015056	1.95	0.014804	0.013135	6223.26	1.06	6243.00	1.46
196	953.63	0.014421	1.96	0.014843	0.012954	5973.46	0.99	5984.30	1.63
197	956.88	0.013841	1.97	0.014813	0.013105	5725.66	0.89	5737.90	1.42
198	960.12	0.013253	1.98	0.014835	0.012972	5483.26	1.14	5492.50	1.54
199	963.36	0.012696	2.00	0.014795	0.012967	5250.61	1.04	5258.90	1.36
200	966.60	0.012171	2.01	0.014834	0.013205	5025.61	1.11	5035.90	1.95
201	969.84	0.011648	2.02	0.014808	0.012979	4802.91	0.85	4814.40	1.75
202	973.08	0.011122	2.04	0.014840	0.012957	4587.76	1.00	4595.80	1.35
203	976.31	0.010610	2.05	0.014813	0.012990	4374.86	0.97	4381.40	1.77
204	979.55	0.010113	2.07	0.014838	0.012924	4160.71	0.87	4169.60	1.98
205	982.78	0.009589	2.10	0.014810	0.012906	3950.11	0.95	3957.10	1.82
206	986.01	0.009100	2.14	0.014826	0.012950	3745.61	0.78	3754.90	2.25
207	989.24	0.008581	2.17	0.014800	0.013098	3544.31	1.09	3548.00	1.82
208	992.47	0.008100	2.18	0.014850	0.012868	3345.16	0.79	3349.80	1.53
209	995.70	0.000000	1.78	0.014817	0.013175	3147.91	0.73	3153.70	1.75
210	998.92	0.000000	1.80	0.014797	0.013030	2956.71	0.95	2961.90	1.79
211	1002.14	0.000000	1.82	0.014791	0.013069	2768.21	1.08	2776.80	1.64
212	1005.36	0.000000	1.85	0.014837	0.012940	2589.86	0.93	2594.80	2.01
213	1008.58	0.000000	1.86	0.014813	0.013030	2413.01	0.93	2420.00	1.67
214	1011.80	0.000000	1.89	0.014856	0.012951	2244.61	0.75	2246.60	1.72
215	1015.02	0.000000	1.91	0.014810	0.012958	2082.21	0.75	2085.40	1.76
216	1018.23	0.000000	1.93	0.014830	0.013056	1924.46	0.88	1924.90	1.60
217	1021.44	0.000000	1.98	0.014790	0.012927	1771.66	0.95	1774.60	1.99
218	1024.65	0.000000	1.98	0.014815	0.012897	1623.51	1.02	1626.30	1.49
219	1027.86	0.000000	2.03	0.014800	0.013006	1475.76	1.23	1478.00	1.80
220	1031.07	0.000000	2.07	0.014824	0.012849	1332.11	0.79	1334.30	1.82
221	1034.27	0.000000	2.11	0.014783	0.012948	1189.46	0.89	1192.00	1.79
222	1037.48	0.000000	2.13	0.014837	0.012911	1056.76	0.82	1057.50	1.58
223	1040.68	0.000000	2.18	0.014810	0.012914	930.96	0.86	932.60	1.59
224	1043.88	0.000000	2.25	0.014834	0.013063	814.46	0.83	813.30	1.65
225	1047.08	0.000000	2.41	0.014796	0.013054	709.51	0.91	706.50	2.00
226	1050.27	0.000000	2.37	0.014820	0.012974	608.11	0.93	610.80	1.52
227	1053.47	0.000000	2.41	0.014782	0.012811	522.46	0.78	520.90	1.32
228	1056.66	0.000000	2.80	0.014806	0.012949	443.36	1.30	441.50	1.81
229	1059.85	0.000000	2.84	0.014793	0.012803	372.61	0.77	372.40	1.61
230	1063.04	0.000000	2.89	0.014816	0.013025	310.51	1.02	310.10	1.32
231	1066.23	0.000000	3.37	0.014789	0.012908	256.26	0.81	257.40	1.56
232	1069.41	0.000000	4.14	0.014829	0.012949	211.76	0.74	211.60	1.79
233	1072.59	0.000000	4.53	0.014783	0.013093	171.76	0.96	169.40	1.55
234	1075.78	0.000000	6.31	0.014826	0.013172	138.26	0.92	137.70	1.95
235	1078.95	0.000000	7.65	0.014788	0.012899	107.91	0.72	107.70	1.92
236	1082.13	0.000000	7.85	0.014815	0.012879	84.61	0.96	84.80	1.51
237	1085.31	0.000000	9.29	0.014815	0.012970	67.46	1.10	65.50	1.31
238	1088.48	0.000000	14.95	0.014840	0.012892	51.46	1.08	53.00	1.94
239	1091.65	0.000000	12.97	0.014793	0.013043	40.41	0.91	41.20	1.26
240	1094.82	0.000000	22.01	0.014825	0.013042	28.71	0.82	29.40	1.59
241	1097.99	0.000000	38.14	0.014784	0.012809	17.26	0.76	16.70	1.49
242	1101.15	0.000000	111.68	0.014835	0.013061	7.16	0.74	6.70	1.70
243	1104.31	0.000000	110.30	0.014782	0.012836	-0.14	0.80	3.00	1.64
244	1107.48	0.000000	281.29	0.014833	0.012828	-5.04	0.86	-3.80	1.75
245	1110.63	0.000000	43.88	0.014808	0.012988	-10.54	1.21	-14.30	1.88
246	1113.79	0.000000	48.00	0.014819	0.013008	-15.54	0.77	-15.30	1.76
247	1116.95	0.000000	52.12	0.014804	0.012963	-17.39	0.80	-16.00	1.86
248	1120.10	0.000000	32.53	0.014845	0.012768	-19.74	0.99	-21.40	1.80
249	1123.25	0.000000	37.83	0.014810	0.012990	-21.34	0.79	-23.40	2.37
250	1126.40	0.000000	39.43	0.014869	0.013064	-23.49	0.84	-21.40	1.85
251	1129.54	0.000000	27.73	0.014815	0.013105	-23.84	0.96	-23.70	1.55
252	1132.69	0.000000	27.89	0.014898	0.012922	-25.44	1.16	-23.60	1.39
253	1135.83	0.000000	23.26	0.014878	0.012957	-24.84	0.82	-28.00	1.75
254	1138.97	0.000000	35.91	0.014978	0.013004	-25.09	0.95	-24.60	2.10
255	1142.11	0.000000	26.77	0.015370	0.013094	-27.74	1.03	-25.40	1.44
[END_OF_CALDATA]
