!FRM4SOC_CP
!RADCAL
# radiometric calibration coefs & linearity, lamp and panel data

# comments start with # (ignored by the processor)
# no empty lines between the parameter signatures in [] and the parameter values
# parameters are case insensitive
# parameters can be inserted in any order, except the first two signatures
# columns are tab- or space-delimited

[VERSION]
0.1

[CALDATE]
2022-06-27 09:45:19

[CALLAB]
Tartu Observatory

[USER]
Riho Vendt

[LAMP_ID]
TO_717

[PANEL_ID]
SG3151_2019

[DEVICE]
SAM_8595

# Correlated color temperature (K)
[LAMP_CCT]
2990.7

# wavelength (nm)	bandwidth (nm)	irradiane (mW/m2/nm)	uncertainty (%, k=2)
[LAMPDATA]
300.00	0.00	1.5637	2.31
300.50	0.00	1.5923	2.29
301.00	0.00	1.6214	2.27
301.50	0.00	1.6508	2.25
302.00	0.00	1.6807	2.23
302.50	0.00	1.7109	2.21
303.00	0.00	1.7416	2.19
303.50	0.00	1.7726	2.17
304.00	0.00	1.8041	2.15
304.50	0.00	1.8360	2.13
305.00	0.00	1.8684	2.11
305.50	0.00	1.9011	2.09
306.00	0.00	1.9343	2.08
306.50	0.00	1.9679	2.06
307.00	0.00	2.0020	2.04
307.50	0.00	2.0365	2.02
308.00	0.00	2.0714	2.00
308.50	0.00	2.1068	1.98
309.00	0.00	2.1426	1.96
309.50	0.00	2.1789	1.94
310.00	0.00	2.2156	1.92
310.50	0.00	2.2528	1.90
311.00	0.00	2.2905	1.88
311.50	0.00	2.3286	1.86
312.00	0.00	2.3672	1.84
312.50	0.00	2.4063	1.82
313.00	0.00	2.4458	1.80
313.50	0.00	2.4859	1.78
314.00	0.00	2.5264	1.76
314.50	0.00	2.5674	1.74
315.00	0.00	2.6088	1.72
315.50	0.00	2.6508	1.72
316.00	0.00	2.6933	1.72
316.50	0.00	2.7363	1.72
317.00	0.00	2.7797	1.72
317.50	0.00	2.8237	1.72
318.00	0.00	2.8682	1.72
318.50	0.00	2.9132	1.72
319.00	0.00	2.9587	1.72
319.50	0.00	3.0047	1.72
320.00	0.00	3.0513	1.72
320.50	0.00	3.0983	1.72
321.00	0.00	3.1459	1.72
321.50	0.00	3.1941	1.72
322.00	0.00	3.2427	1.72
322.50	0.00	3.2919	1.72
323.00	0.00	3.3417	1.72
323.50	0.00	3.3919	1.72
324.00	0.00	3.4428	1.72
324.50	0.00	3.4942	1.72
325.00	0.00	3.5461	1.72
325.50	0.00	3.5986	1.72
326.00	0.00	3.6516	1.72
326.50	0.00	3.7052	1.72
327.00	0.00	3.7594	1.72
327.50	0.00	3.8141	1.72
328.00	0.00	3.8694	1.72
328.50	0.00	3.9253	1.72
329.00	0.00	3.9817	1.72
329.50	0.00	4.0388	1.72
330.00	0.00	4.0964	1.72
330.50	0.00	4.1546	1.72
331.00	0.00	4.2134	1.72
331.50	0.00	4.2727	1.72
332.00	0.00	4.3327	1.72
332.50	0.00	4.3933	1.72
333.00	0.00	4.4544	1.72
333.50	0.00	4.5162	1.72
334.00	0.00	4.5786	1.72
334.50	0.00	4.6416	1.72
335.00	0.00	4.7051	1.72
335.50	0.00	4.7693	1.72
336.00	0.00	4.8342	1.72
336.50	0.00	4.8996	1.72
337.00	0.00	4.9656	1.72
337.50	0.00	5.0323	1.72
338.00	0.00	5.0996	1.72
338.50	0.00	5.1676	1.72
339.00	0.00	5.2361	1.72
339.50	0.00	5.3053	1.72
340.00	0.00	5.3752	1.72
340.50	0.00	5.4457	1.72
341.00	0.00	5.5168	1.72
341.50	0.00	5.5885	1.72
342.00	0.00	5.6609	1.72
342.50	0.00	5.7340	1.72
343.00	0.00	5.8077	1.72
343.50	0.00	5.8821	1.72
344.00	0.00	5.9571	1.72
344.50	0.00	6.0328	1.72
345.00	0.00	6.1091	1.72
345.50	0.00	6.1862	1.72
346.00	0.00	6.2638	1.72
346.50	0.00	6.3422	1.72
347.00	0.00	6.4212	1.72
347.50	0.00	6.5009	1.72
348.00	0.00	6.5812	1.72
348.50	0.00	6.6623	1.72
349.00	0.00	6.7440	1.72
349.50	0.00	6.8264	1.72
350.00	0.00	6.9095	1.72
350.50	0.00	6.9933	1.72
351.00	0.00	7.0778	1.72
351.50	0.00	7.1629	1.72
352.00	0.00	7.2488	1.72
352.50	0.00	7.3353	1.72
353.00	0.00	7.4226	1.72
353.50	0.00	7.5105	1.72
354.00	0.00	7.5992	1.72
354.50	0.00	7.6885	1.72
355.00	0.00	7.7786	1.72
355.50	0.00	7.8693	1.72
356.00	0.00	7.9608	1.72
356.50	0.00	8.0530	1.72
357.00	0.00	8.1459	1.72
357.50	0.00	8.2395	1.72
358.00	0.00	8.3338	1.72
358.50	0.00	8.4289	1.72
359.00	0.00	8.5246	1.72
359.50	0.00	8.6211	1.72
360.00	0.00	8.7183	1.72
360.50	0.00	8.8163	1.72
361.00	0.00	8.9150	1.72
361.50	0.00	9.0144	1.72
362.00	0.00	9.1145	1.72
362.50	0.00	9.2154	1.72
363.00	0.00	9.3170	1.72
363.50	0.00	9.4193	1.72
364.00	0.00	9.5224	1.72
364.50	0.00	9.6262	1.72
365.00	0.00	9.7307	1.72
365.50	0.00	9.8360	1.72
366.00	0.00	9.9420	1.72
366.50	0.00	10.0488	1.72
367.00	0.00	10.1564	1.72
367.50	0.00	10.2646	1.72
368.00	0.00	10.3737	1.72
368.50	0.00	10.4834	1.72
369.00	0.00	10.5940	1.72
369.50	0.00	10.7052	1.72
370.00	0.00	10.8173	1.72
370.50	0.00	10.9301	1.72
371.00	0.00	11.0436	1.72
371.50	0.00	11.1579	1.72
372.00	0.00	11.2730	1.72
372.50	0.00	11.3888	1.72
373.00	0.00	11.5054	1.72
373.50	0.00	11.6228	1.72
374.00	0.00	11.7409	1.72
374.50	0.00	11.8597	1.72
375.00	0.00	11.9794	1.72
375.50	0.00	12.0998	1.72
376.00	0.00	12.2210	1.72
376.50	0.00	12.3429	1.72
377.00	0.00	12.4657	1.72
377.50	0.00	12.5891	1.72
378.00	0.00	12.7134	1.72
378.50	0.00	12.8384	1.72
379.00	0.00	12.9642	1.72
379.50	0.00	13.0908	1.72
380.00	0.00	13.2182	1.72
380.50	0.00	13.3463	1.71
381.00	0.00	13.4752	1.71
381.50	0.00	13.6049	1.71
382.00	0.00	13.7354	1.70
382.50	0.00	13.8666	1.70
383.00	0.00	13.9986	1.69
383.50	0.00	14.1314	1.69
384.00	0.00	14.2650	1.69
384.50	0.00	14.3994	1.68
385.00	0.00	14.5345	1.68
385.50	0.00	14.6705	1.67
386.00	0.00	14.8072	1.67
386.50	0.00	14.9447	1.66
387.00	0.00	15.0829	1.66
387.50	0.00	15.2220	1.66
388.00	0.00	15.3618	1.65
388.50	0.00	15.5025	1.65
389.00	0.00	15.6439	1.64
389.50	0.00	15.7861	1.64
390.00	0.00	15.9291	1.64
390.50	0.00	16.0728	1.63
391.00	0.00	16.2174	1.63
391.50	0.00	16.3627	1.62
392.00	0.00	16.5089	1.62
392.50	0.00	16.6558	1.62
393.00	0.00	16.8035	1.61
393.50	0.00	16.9520	1.61
394.00	0.00	17.1012	1.60
394.50	0.00	17.2513	1.60
395.00	0.00	17.4022	1.59
395.50	0.00	17.5538	1.59
396.00	0.00	17.7062	1.59
396.50	0.00	17.8594	1.58
397.00	0.00	18.0134	1.58
397.50	0.00	18.1682	1.57
398.00	0.00	18.3238	1.57
398.50	0.00	18.4801	1.57
399.00	0.00	18.6373	1.56
399.50	0.00	18.7952	1.56
400.00	0.00	18.9539	1.55
400.50	0.00	19.1134	1.55
401.00	0.00	19.2737	1.55
401.50	0.00	19.4348	1.54
402.00	0.00	19.5966	1.54
402.50	0.00	19.7593	1.53
403.00	0.00	19.9227	1.53
403.50	0.00	20.0869	1.52
404.00	0.00	20.2519	1.52
404.50	0.00	20.4177	1.52
405.00	0.00	20.5842	1.51
405.50	0.00	20.7516	1.51
406.00	0.00	20.9197	1.50
406.50	0.00	21.0886	1.50
407.00	0.00	21.2583	1.50
407.50	0.00	21.4287	1.49
408.00	0.00	21.6000	1.49
408.50	0.00	21.7720	1.48
409.00	0.00	21.9448	1.48
409.50	0.00	22.1184	1.48
410.00	0.00	22.2927	1.47
410.50	0.00	22.4678	1.47
411.00	0.00	22.6437	1.46
411.50	0.00	22.8204	1.46
412.00	0.00	22.9979	1.45
412.50	0.00	23.1761	1.45
413.00	0.00	23.3551	1.45
413.50	0.00	23.5348	1.44
414.00	0.00	23.7154	1.44
414.50	0.00	23.8967	1.43
415.00	0.00	24.0788	1.43
415.50	0.00	24.2616	1.43
416.00	0.00	24.4452	1.42
416.50	0.00	24.6296	1.42
417.00	0.00	24.8147	1.41
417.50	0.00	25.0006	1.41
418.00	0.00	25.1873	1.41
418.50	0.00	25.3747	1.40
419.00	0.00	25.5629	1.40
419.50	0.00	25.7518	1.39
420.00	0.00	25.9415	1.39
420.50	0.00	26.1319	1.39
421.00	0.00	26.3231	1.38
421.50	0.00	26.5151	1.38
422.00	0.00	26.7078	1.37
422.50	0.00	26.9013	1.37
423.00	0.00	27.0955	1.36
423.50	0.00	27.2905	1.36
424.00	0.00	27.4862	1.36
424.50	0.00	27.6826	1.35
425.00	0.00	27.8798	1.35
425.50	0.00	28.0778	1.34
426.00	0.00	28.2764	1.34
426.50	0.00	28.4759	1.34
427.00	0.00	28.6760	1.33
427.50	0.00	28.8769	1.33
428.00	0.00	29.0786	1.32
428.50	0.00	29.2809	1.32
429.00	0.00	29.4840	1.32
429.50	0.00	29.6879	1.31
430.00	0.00	29.8924	1.31
430.50	0.00	30.0977	1.30
431.00	0.00	30.3037	1.30
431.50	0.00	30.5105	1.30
432.00	0.00	30.7179	1.29
432.50	0.00	30.9261	1.29
433.00	0.00	31.1350	1.28
433.50	0.00	31.3446	1.28
434.00	0.00	31.5550	1.27
434.50	0.00	31.7660	1.27
435.00	0.00	31.9778	1.27
435.50	0.00	32.1902	1.26
436.00	0.00	32.4034	1.26
436.50	0.00	32.6173	1.25
437.00	0.00	32.8319	1.25
437.50	0.00	33.0472	1.25
438.00	0.00	33.2632	1.24
438.50	0.00	33.4799	1.24
439.00	0.00	33.6972	1.23
439.50	0.00	33.9153	1.23
440.00	0.00	34.1341	1.23
440.50	0.00	34.3536	1.23
441.00	0.00	34.5737	1.23
441.50	0.00	34.7945	1.23
442.00	0.00	35.0161	1.23
442.50	0.00	35.2383	1.23
443.00	0.00	35.4611	1.23
443.50	0.00	35.6847	1.23
444.00	0.00	35.9089	1.23
444.50	0.00	36.1338	1.23
445.00	0.00	36.3594	1.23
445.50	0.00	36.5857	1.23
446.00	0.00	36.8126	1.23
446.50	0.00	37.0402	1.23
447.00	0.00	37.2684	1.23
447.50	0.00	37.4973	1.23
448.00	0.00	37.7269	1.23
448.50	0.00	37.9571	1.23
449.00	0.00	38.1879	1.23
449.50	0.00	38.4195	1.23
450.00	0.00	38.6516	1.23
450.50	0.00	38.8844	1.23
451.00	0.00	39.1179	1.23
451.50	0.00	39.3520	1.23
452.00	0.00	39.5867	1.23
452.50	0.00	39.8220	1.23
453.00	0.00	40.0580	1.23
453.50	0.00	40.2947	1.23
454.00	0.00	40.5319	1.23
454.50	0.00	40.7698	1.23
455.00	0.00	41.0083	1.23
455.50	0.00	41.2474	1.23
456.00	0.00	41.4872	1.23
456.50	0.00	41.7275	1.23
457.00	0.00	41.9685	1.23
457.50	0.00	42.2101	1.23
458.00	0.00	42.4522	1.23
458.50	0.00	42.6950	1.23
459.00	0.00	42.9384	1.23
459.50	0.00	43.1824	1.23
460.00	0.00	43.4270	1.23
460.50	0.00	43.6722	1.23
461.00	0.00	43.9179	1.23
461.50	0.00	44.1643	1.23
462.00	0.00	44.4112	1.23
462.50	0.00	44.6587	1.23
463.00	0.00	44.9068	1.23
463.50	0.00	45.1555	1.23
464.00	0.00	45.4047	1.23
464.50	0.00	45.6546	1.23
465.00	0.00	45.9049	1.23
465.50	0.00	46.1559	1.23
466.00	0.00	46.4074	1.23
466.50	0.00	46.6595	1.23
467.00	0.00	46.9121	1.23
467.50	0.00	47.1653	1.23
468.00	0.00	47.4190	1.23
468.50	0.00	47.6733	1.23
469.00	0.00	47.9281	1.23
469.50	0.00	48.1834	1.23
470.00	0.00	48.4393	1.23
470.50	0.00	48.6958	1.23
471.00	0.00	48.9527	1.23
471.50	0.00	49.2102	1.23
472.00	0.00	49.4682	1.23
472.50	0.00	49.7268	1.23
473.00	0.00	49.9858	1.23
473.50	0.00	50.2454	1.23
474.00	0.00	50.5055	1.23
474.50	0.00	50.7661	1.23
475.00	0.00	51.0272	1.23
475.50	0.00	51.2888	1.23
476.00	0.00	51.5509	1.23
476.50	0.00	51.8135	1.23
477.00	0.00	52.0766	1.23
477.50	0.00	52.3402	1.23
478.00	0.00	52.6043	1.23
478.50	0.00	52.8688	1.23
479.00	0.00	53.1339	1.23
479.50	0.00	53.3994	1.23
480.00	0.00	53.6654	1.23
480.50	0.00	53.9318	1.23
481.00	0.00	54.1988	1.23
481.50	0.00	54.4662	1.23
482.00	0.00	54.7340	1.23
482.50	0.00	55.0023	1.23
483.00	0.00	55.2711	1.23
483.50	0.00	55.5403	1.23
484.00	0.00	55.8100	1.23
484.50	0.00	56.0801	1.23
485.00	0.00	56.3507	1.23
485.50	0.00	56.6216	1.23
486.00	0.00	56.8931	1.23
486.50	0.00	57.1649	1.23
487.00	0.00	57.4372	1.23
487.50	0.00	57.7099	1.23
488.00	0.00	57.9830	1.23
488.50	0.00	58.2566	1.23
489.00	0.00	58.5305	1.23
489.50	0.00	58.8049	1.23
490.00	0.00	59.0797	1.23
490.50	0.00	59.3549	1.23
491.00	0.00	59.6304	1.23
491.50	0.00	59.9064	1.23
492.00	0.00	60.1828	1.23
492.50	0.00	60.4595	1.23
493.00	0.00	60.7367	1.23
493.50	0.00	61.0142	1.23
494.00	0.00	61.2921	1.23
494.50	0.00	61.5704	1.23
495.00	0.00	61.8490	1.23
495.50	0.00	62.1280	1.23
496.00	0.00	62.4074	1.23
496.50	0.00	62.6871	1.23
497.00	0.00	62.9672	1.23
497.50	0.00	63.2477	1.23
498.00	0.00	63.5285	1.23
498.50	0.00	63.8096	1.23
499.00	0.00	64.0911	1.23
499.50	0.00	64.3730	1.23
500.00	0.00	64.6551	1.23
500.50	0.00	64.9376	1.23
501.00	0.00	65.2205	1.23
501.50	0.00	65.5036	1.23
502.00	0.00	65.7871	1.23
502.50	0.00	66.0709	1.23
503.00	0.00	66.3550	1.23
503.50	0.00	66.6394	1.23
504.00	0.00	66.9241	1.23
504.50	0.00	67.2092	1.23
505.00	0.00	67.4945	1.23
505.50	0.00	67.7801	1.23
506.00	0.00	68.0660	1.23
506.50	0.00	68.3522	1.23
507.00	0.00	68.6387	1.23
507.50	0.00	68.9255	1.23
508.00	0.00	69.2125	1.23
508.50	0.00	69.4999	1.23
509.00	0.00	69.7875	1.23
509.50	0.00	70.0753	1.23
510.00	0.00	70.3634	1.23
510.50	0.00	70.6518	1.23
511.00	0.00	70.9405	1.23
511.50	0.00	71.2293	1.23
512.00	0.00	71.5185	1.23
512.50	0.00	71.8079	1.23
513.00	0.00	72.0975	1.23
513.50	0.00	72.3873	1.23
514.00	0.00	72.6774	1.23
514.50	0.00	72.9678	1.23
515.00	0.00	73.2583	1.23
515.50	0.00	73.5491	1.23
516.00	0.00	73.8401	1.23
516.50	0.00	74.1313	1.23
517.00	0.00	74.4227	1.23
517.50	0.00	74.7143	1.23
518.00	0.00	75.0062	1.23
518.50	0.00	75.2982	1.23
519.00	0.00	75.5904	1.23
519.50	0.00	75.8828	1.23
520.00	0.00	76.1754	1.23
520.50	0.00	76.4682	1.23
521.00	0.00	76.7612	1.23
521.50	0.00	77.0544	1.23
522.00	0.00	77.3477	1.23
522.50	0.00	77.6412	1.23
523.00	0.00	77.9349	1.23
523.50	0.00	78.2287	1.23
524.00	0.00	78.5227	1.23
524.50	0.00	78.8168	1.23
525.00	0.00	79.1111	1.23
525.50	0.00	79.4056	1.23
526.00	0.00	79.7002	1.23
526.50	0.00	79.9949	1.23
527.00	0.00	80.2898	1.23
527.50	0.00	80.5848	1.23
528.00	0.00	80.8799	1.23
528.50	0.00	81.1752	1.23
529.00	0.00	81.4706	1.23
529.50	0.00	81.7661	1.23
530.00	0.00	82.0617	1.23
530.50	0.00	82.3574	1.23
531.00	0.00	82.6533	1.23
531.50	0.00	82.9492	1.23
532.00	0.00	83.2453	1.23
532.50	0.00	83.5414	1.23
533.00	0.00	83.8376	1.23
533.50	0.00	84.1340	1.23
534.00	0.00	84.4304	1.23
534.50	0.00	84.7269	1.23
535.00	0.00	85.0235	1.23
535.50	0.00	85.3201	1.23
536.00	0.00	85.6168	1.23
536.50	0.00	85.9136	1.23
537.00	0.00	86.2105	1.23
537.50	0.00	86.5074	1.23
538.00	0.00	86.8044	1.23
538.50	0.00	87.1014	1.23
539.00	0.00	87.3985	1.23
539.50	0.00	87.6957	1.23
540.00	0.00	87.9928	1.23
540.50	0.00	88.2900	1.23
541.00	0.00	88.5873	1.23
541.50	0.00	88.8846	1.23
542.00	0.00	89.1819	1.23
542.50	0.00	89.4792	1.23
543.00	0.00	89.7766	1.23
543.50	0.00	90.0740	1.23
544.00	0.00	90.3714	1.23
544.50	0.00	90.6688	1.23
545.00	0.00	90.9662	1.23
545.50	0.00	91.2636	1.23
546.00	0.00	91.5611	1.23
546.50	0.00	91.8585	1.23
547.00	0.00	92.1559	1.23
547.50	0.00	92.4533	1.23
548.00	0.00	92.7507	1.23
548.50	0.00	93.0481	1.23
549.00	0.00	93.3454	1.23
549.50	0.00	93.6428	1.23
550.00	0.00	93.9401	1.23
550.50	0.00	94.2374	1.23
551.00	0.00	94.5346	1.23
551.50	0.00	94.8318	1.23
552.00	0.00	95.1290	1.23
552.50	0.00	95.4261	1.23
553.00	0.00	95.7232	1.23
553.50	0.00	96.0202	1.23
554.00	0.00	96.3172	1.23
554.50	0.00	96.6141	1.23
555.00	0.00	96.9110	1.23
555.50	0.00	97.2078	1.23
556.00	0.00	97.5045	1.23
556.50	0.00	97.8012	1.23
557.00	0.00	98.0978	1.23
557.50	0.00	98.3943	1.23
558.00	0.00	98.6907	1.23
558.50	0.00	98.9871	1.23
559.00	0.00	99.2833	1.23
559.50	0.00	99.5795	1.23
560.00	0.00	99.8756	1.23
560.50	0.00	100.1716	1.23
561.00	0.00	100.4675	1.23
561.50	0.00	100.7632	1.23
562.00	0.00	101.0589	1.23
562.50	0.00	101.3545	1.23
563.00	0.00	101.6500	1.23
563.50	0.00	101.9453	1.23
564.00	0.00	102.2405	1.23
564.50	0.00	102.5356	1.23
565.00	0.00	102.8306	1.23
565.50	0.00	103.1255	1.23
566.00	0.00	103.4202	1.23
566.50	0.00	103.7148	1.23
567.00	0.00	104.0092	1.23
567.50	0.00	104.3035	1.23
568.00	0.00	104.5977	1.23
568.50	0.00	104.8917	1.23
569.00	0.00	105.1856	1.23
569.50	0.00	105.4793	1.23
570.00	0.00	105.7729	1.23
570.50	0.00	106.0663	1.23
571.00	0.00	106.3595	1.23
571.50	0.00	106.6526	1.23
572.00	0.00	106.9455	1.23
572.50	0.00	107.2383	1.23
573.00	0.00	107.5308	1.23
573.50	0.00	107.8232	1.23
574.00	0.00	108.1155	1.23
574.50	0.00	108.4075	1.23
575.00	0.00	108.6994	1.23
575.50	0.00	108.9910	1.23
576.00	0.00	109.2825	1.23
576.50	0.00	109.5738	1.23
577.00	0.00	109.8649	1.23
577.50	0.00	110.1558	1.23
578.00	0.00	110.4464	1.23
578.50	0.00	110.7369	1.23
579.00	0.00	111.0272	1.23
579.50	0.00	111.3173	1.23
580.00	0.00	111.6071	1.23
580.50	0.00	111.8967	1.23
581.00	0.00	112.1862	1.23
581.50	0.00	112.4754	1.23
582.00	0.00	112.7643	1.23
582.50	0.00	113.0531	1.23
583.00	0.00	113.3416	1.23
583.50	0.00	113.6299	1.23
584.00	0.00	113.9180	1.23
584.50	0.00	114.2058	1.23
585.00	0.00	114.4933	1.23
585.50	0.00	114.7807	1.23
586.00	0.00	115.0678	1.23
586.50	0.00	115.3546	1.23
587.00	0.00	115.6412	1.23
587.50	0.00	115.9276	1.23
588.00	0.00	116.2137	1.23
588.50	0.00	116.4995	1.23
589.00	0.00	116.7851	1.23
589.50	0.00	117.0704	1.23
590.00	0.00	117.3554	1.23
590.50	0.00	117.6402	1.23
591.00	0.00	117.9247	1.23
591.50	0.00	118.2089	1.23
592.00	0.00	118.4929	1.23
592.50	0.00	118.7766	1.23
593.00	0.00	119.0600	1.23
593.50	0.00	119.3431	1.23
594.00	0.00	119.6260	1.23
594.50	0.00	119.9085	1.23
595.00	0.00	120.1908	1.23
595.50	0.00	120.4728	1.23
596.00	0.00	120.7544	1.23
596.50	0.00	121.0358	1.23
597.00	0.00	121.3169	1.23
597.50	0.00	121.5977	1.23
598.00	0.00	121.8782	1.23
598.50	0.00	122.1584	1.23
599.00	0.00	122.4383	1.23
599.50	0.00	122.7178	1.23
600.00	0.00	122.9971	1.23
600.50	0.00	123.2760	1.23
601.00	0.00	123.5547	1.23
601.50	0.00	123.8330	1.23
602.00	0.00	124.1110	1.23
602.50	0.00	124.3887	1.23
603.00	0.00	124.6660	1.23
603.50	0.00	124.9430	1.23
604.00	0.00	125.2197	1.23
604.50	0.00	125.4961	1.23
605.00	0.00	125.7721	1.23
605.50	0.00	126.0478	1.23
606.00	0.00	126.3232	1.23
606.50	0.00	126.5982	1.23
607.00	0.00	126.8729	1.23
607.50	0.00	127.1473	1.23
608.00	0.00	127.4213	1.23
608.50	0.00	127.6949	1.23
609.00	0.00	127.9682	1.23
609.50	0.00	128.2412	1.23
610.00	0.00	128.5138	1.23
610.50	0.00	128.7861	1.23
611.00	0.00	129.0580	1.23
611.50	0.00	129.3295	1.23
612.00	0.00	129.6007	1.23
612.50	0.00	129.8715	1.23
613.00	0.00	130.1420	1.23
613.50	0.00	130.4121	1.23
614.00	0.00	130.6819	1.23
614.50	0.00	130.9512	1.23
615.00	0.00	131.2202	1.23
615.50	0.00	131.4889	1.23
616.00	0.00	131.7571	1.23
616.50	0.00	132.0250	1.23
617.00	0.00	132.2925	1.23
617.50	0.00	132.5597	1.23
618.00	0.00	132.8264	1.23
618.50	0.00	133.0928	1.23
619.00	0.00	133.3588	1.23
619.50	0.00	133.6244	1.23
620.00	0.00	133.8897	1.23
620.50	0.00	134.1545	1.23
621.00	0.00	134.4190	1.23
621.50	0.00	134.6830	1.23
622.00	0.00	134.9467	1.23
622.50	0.00	135.2100	1.23
623.00	0.00	135.4729	1.23
623.50	0.00	135.7354	1.23
624.00	0.00	135.9975	1.23
624.50	0.00	136.2592	1.23
625.00	0.00	136.5205	1.23
625.50	0.00	136.7814	1.23
626.00	0.00	137.0419	1.23
626.50	0.00	137.3020	1.23
627.00	0.00	137.5617	1.23
627.50	0.00	137.8209	1.23
628.00	0.00	138.0798	1.23
628.50	0.00	138.3383	1.23
629.00	0.00	138.5963	1.23
629.50	0.00	138.8540	1.23
630.00	0.00	139.1112	1.23
630.50	0.00	139.3681	1.23
631.00	0.00	139.6245	1.23
631.50	0.00	139.8805	1.23
632.00	0.00	140.1360	1.23
632.50	0.00	140.3912	1.23
633.00	0.00	140.6459	1.23
633.50	0.00	140.9002	1.23
634.00	0.00	141.1541	1.23
634.50	0.00	141.4076	1.23
635.00	0.00	141.6606	1.23
635.50	0.00	141.9133	1.23
636.00	0.00	142.1655	1.23
636.50	0.00	142.4172	1.23
637.00	0.00	142.6686	1.23
637.50	0.00	142.9195	1.23
638.00	0.00	143.1700	1.23
638.50	0.00	143.4200	1.23
639.00	0.00	143.6696	1.23
639.50	0.00	143.9188	1.23
640.00	0.00	144.1676	1.23
640.50	0.00	144.4159	1.23
641.00	0.00	144.6638	1.23
641.50	0.00	144.9112	1.23
642.00	0.00	145.1582	1.23
642.50	0.00	145.4048	1.23
643.00	0.00	145.6509	1.23
643.50	0.00	145.8966	1.23
644.00	0.00	146.1418	1.23
644.50	0.00	146.3866	1.23
645.00	0.00	146.6310	1.23
645.50	0.00	146.8749	1.23
646.00	0.00	147.1184	1.23
646.50	0.00	147.3614	1.23
647.00	0.00	147.6040	1.23
647.50	0.00	147.8461	1.23
648.00	0.00	148.0878	1.23
648.50	0.00	148.3291	1.23
649.00	0.00	148.5699	1.23
649.50	0.00	148.8102	1.23
650.00	0.00	149.0501	1.23
650.50	0.00	149.2895	1.23
651.00	0.00	149.5285	1.23
651.50	0.00	149.7671	1.23
652.00	0.00	150.0052	1.23
652.50	0.00	150.2428	1.23
653.00	0.00	150.4800	1.23
653.50	0.00	150.7167	1.23
654.00	0.00	150.9530	1.23
654.50	0.00	151.1888	1.23
655.00	0.00	151.4241	1.23
655.50	0.00	151.6590	1.23
656.00	0.00	151.8935	1.23
656.50	0.00	152.1274	1.23
657.00	0.00	152.3610	1.23
657.50	0.00	152.5940	1.23
658.00	0.00	152.8267	1.23
658.50	0.00	153.0588	1.23
659.00	0.00	153.2905	1.23
659.50	0.00	153.5217	1.23
660.00	0.00	153.7525	1.23
660.50	0.00	153.9828	1.23
661.00	0.00	154.2126	1.23
661.50	0.00	154.4420	1.23
662.00	0.00	154.6709	1.23
662.50	0.00	154.8994	1.23
663.00	0.00	155.1274	1.23
663.50	0.00	155.3549	1.23
664.00	0.00	155.5820	1.23
664.50	0.00	155.8086	1.23
665.00	0.00	156.0347	1.23
665.50	0.00	156.2604	1.23
666.00	0.00	156.4856	1.23
666.50	0.00	156.7103	1.23
667.00	0.00	156.9346	1.23
667.50	0.00	157.1584	1.23
668.00	0.00	157.3817	1.23
668.50	0.00	157.6046	1.23
669.00	0.00	157.8270	1.23
669.50	0.00	158.0489	1.23
670.00	0.00	158.2704	1.23
670.50	0.00	158.4914	1.23
671.00	0.00	158.7120	1.23
671.50	0.00	158.9320	1.23
672.00	0.00	159.1516	1.23
672.50	0.00	159.3708	1.23
673.00	0.00	159.5894	1.23
673.50	0.00	159.8076	1.23
674.00	0.00	160.0253	1.23
674.50	0.00	160.2426	1.23
675.00	0.00	160.4594	1.23
675.50	0.00	160.6757	1.23
676.00	0.00	160.8915	1.23
676.50	0.00	161.1069	1.23
677.00	0.00	161.3218	1.23
677.50	0.00	161.5363	1.23
678.00	0.00	161.7502	1.23
678.50	0.00	161.9637	1.23
679.00	0.00	162.1768	1.23
679.50	0.00	162.3893	1.23
680.00	0.00	162.6014	1.23
680.50	0.00	162.8130	1.23
681.00	0.00	163.0242	1.23
681.50	0.00	163.2349	1.23
682.00	0.00	163.4451	1.23
682.50	0.00	163.6548	1.23
683.00	0.00	163.8641	1.23
683.50	0.00	164.0729	1.23
684.00	0.00	164.2812	1.23
684.50	0.00	164.4891	1.23
685.00	0.00	164.6965	1.23
685.50	0.00	164.9034	1.23
686.00	0.00	165.1099	1.23
686.50	0.00	165.3158	1.23
687.00	0.00	165.5213	1.23
687.50	0.00	165.7264	1.23
688.00	0.00	165.9310	1.23
688.50	0.00	166.1351	1.23
689.00	0.00	166.3387	1.23
689.50	0.00	166.5419	1.23
690.00	0.00	166.7445	1.23
690.50	0.00	166.9468	1.23
691.00	0.00	167.1485	1.23
691.50	0.00	167.3498	1.23
692.00	0.00	167.5506	1.23
692.50	0.00	167.7510	1.23
693.00	0.00	167.9509	1.23
693.50	0.00	168.1503	1.23
694.00	0.00	168.3492	1.23
694.50	0.00	168.5477	1.23
695.00	0.00	168.7457	1.23
695.50	0.00	168.9432	1.23
696.00	0.00	169.1403	1.23
696.50	0.00	169.3369	1.23
697.00	0.00	169.5331	1.23
697.50	0.00	169.7287	1.23
698.00	0.00	169.9239	1.23
698.50	0.00	170.1187	1.23
699.00	0.00	170.3129	1.23
699.50	0.00	170.5067	1.23
700.00	0.00	170.7001	1.23
700.50	0.00	170.8930	1.23
701.00	0.00	171.0854	1.23
701.50	0.00	171.2773	1.23
702.00	0.00	171.4688	1.23
702.50	0.00	171.6598	1.23
703.00	0.00	171.8503	1.23
703.50	0.00	172.0404	1.23
704.00	0.00	172.2300	1.23
704.50	0.00	172.4192	1.23
705.00	0.00	172.6079	1.23
705.50	0.00	172.7961	1.23
706.00	0.00	172.9838	1.23
706.50	0.00	173.1711	1.23
707.00	0.00	173.3580	1.23
707.50	0.00	173.5443	1.23
708.00	0.00	173.7302	1.23
708.50	0.00	173.9157	1.23
709.00	0.00	174.1007	1.23
709.50	0.00	174.2852	1.23
710.00	0.00	174.4692	1.23
710.50	0.00	174.6528	1.23
711.00	0.00	174.8360	1.23
711.50	0.00	175.0187	1.23
712.00	0.00	175.2009	1.23
712.50	0.00	175.3826	1.23
713.00	0.00	175.5639	1.23
713.50	0.00	175.7447	1.23
714.00	0.00	175.9251	1.23
714.50	0.00	176.1050	1.23
715.00	0.00	176.2845	1.23
715.50	0.00	176.4635	1.23
716.00	0.00	176.6420	1.23
716.50	0.00	176.8201	1.23
717.00	0.00	176.9977	1.23
717.50	0.00	177.1749	1.23
718.00	0.00	177.3516	1.23
718.50	0.00	177.5278	1.23
719.00	0.00	177.7036	1.23
719.50	0.00	177.8790	1.23
720.00	0.00	178.0538	1.23
720.50	0.00	178.2283	1.23
721.00	0.00	178.4022	1.23
721.50	0.00	178.5757	1.23
722.00	0.00	178.7488	1.23
722.50	0.00	178.9214	1.23
723.00	0.00	179.0935	1.23
723.50	0.00	179.2652	1.23
724.00	0.00	179.4365	1.23
724.50	0.00	179.6072	1.23
725.00	0.00	179.7776	1.23
725.50	0.00	179.9474	1.23
726.00	0.00	180.1169	1.23
726.50	0.00	180.2858	1.23
727.00	0.00	180.4543	1.23
727.50	0.00	180.6224	1.23
728.00	0.00	180.7900	1.23
728.50	0.00	180.9572	1.23
729.00	0.00	181.1239	1.23
729.50	0.00	181.2901	1.23
730.00	0.00	181.4559	1.23
730.50	0.00	181.6213	1.23
731.00	0.00	181.7862	1.23
731.50	0.00	181.9506	1.23
732.00	0.00	182.1146	1.23
732.50	0.00	182.2782	1.23
733.00	0.00	182.4413	1.23
733.50	0.00	182.6039	1.23
734.00	0.00	182.7661	1.23
734.50	0.00	182.9279	1.23
735.00	0.00	183.0892	1.23
735.50	0.00	183.2500	1.23
736.00	0.00	183.4104	1.23
736.50	0.00	183.5704	1.23
737.00	0.00	183.7299	1.23
737.50	0.00	183.8890	1.23
738.00	0.00	184.0476	1.23
738.50	0.00	184.2057	1.23
739.00	0.00	184.3635	1.23
739.50	0.00	184.5207	1.23
740.00	0.00	184.6776	1.23
740.50	0.00	184.8339	1.23
741.00	0.00	184.9899	1.23
741.50	0.00	185.1453	1.23
742.00	0.00	185.3004	1.23
742.50	0.00	185.4550	1.23
743.00	0.00	185.6091	1.23
743.50	0.00	185.7628	1.23
744.00	0.00	185.9161	1.23
744.50	0.00	186.0689	1.23
745.00	0.00	186.2212	1.23
745.50	0.00	186.3732	1.23
746.00	0.00	186.5246	1.23
746.50	0.00	186.6757	1.23
747.00	0.00	186.8262	1.23
747.50	0.00	186.9764	1.23
748.00	0.00	187.1261	1.23
748.50	0.00	187.2753	1.23
749.00	0.00	187.4241	1.23
749.50	0.00	187.5725	1.23
750.00	0.00	187.7204	1.23
750.50	0.00	187.8679	1.23
751.00	0.00	188.0149	1.23
751.50	0.00	188.1615	1.23
752.00	0.00	188.3076	1.23
752.50	0.00	188.4533	1.23
753.00	0.00	188.5985	1.23
753.50	0.00	188.7433	1.23
754.00	0.00	188.8877	1.23
754.50	0.00	189.0316	1.23
755.00	0.00	189.1751	1.23
755.50	0.00	189.3181	1.23
756.00	0.00	189.4607	1.23
756.50	0.00	189.6029	1.23
757.00	0.00	189.7446	1.23
757.50	0.00	189.8858	1.23
758.00	0.00	190.0266	1.23
758.50	0.00	190.1670	1.23
759.00	0.00	190.3069	1.23
759.50	0.00	190.4464	1.23
760.00	0.00	190.5854	1.23
760.50	0.00	190.7240	1.23
761.00	0.00	190.8622	1.23
761.50	0.00	190.9999	1.23
762.00	0.00	191.1372	1.23
762.50	0.00	191.2740	1.23
763.00	0.00	191.4104	1.23
763.50	0.00	191.5463	1.23
764.00	0.00	191.6818	1.23
764.50	0.00	191.8168	1.23
765.00	0.00	191.9514	1.23
765.50	0.00	192.0856	1.23
766.00	0.00	192.2193	1.23
766.50	0.00	192.3525	1.23
767.00	0.00	192.4854	1.23
767.50	0.00	192.6177	1.23
768.00	0.00	192.7497	1.23
768.50	0.00	192.8811	1.23
769.00	0.00	193.0122	1.23
769.50	0.00	193.1428	1.23
770.00	0.00	193.2729	1.23
770.50	0.00	193.4026	1.23
771.00	0.00	193.5319	1.23
771.50	0.00	193.6607	1.23
772.00	0.00	193.7890	1.23
772.50	0.00	193.9170	1.23
773.00	0.00	194.0444	1.23
773.50	0.00	194.1715	1.23
774.00	0.00	194.2980	1.23
774.50	0.00	194.4241	1.23
775.00	0.00	194.5498	1.23
775.50	0.00	194.6751	1.23
776.00	0.00	194.7998	1.23
776.50	0.00	194.9242	1.23
777.00	0.00	195.0481	1.23
777.50	0.00	195.1715	1.23
778.00	0.00	195.2945	1.23
778.50	0.00	195.4170	1.23
779.00	0.00	195.5391	1.23
779.50	0.00	195.6607	1.23
780.00	0.00	195.7819	1.23
780.50	0.00	195.9026	1.23
781.00	0.00	196.0229	1.23
781.50	0.00	196.1427	1.23
782.00	0.00	196.2621	1.23
782.50	0.00	196.3810	1.23
783.00	0.00	196.4995	1.23
783.50	0.00	196.6175	1.23
784.00	0.00	196.7351	1.23
784.50	0.00	196.8522	1.23
785.00	0.00	196.9688	1.23
785.50	0.00	197.0850	1.23
786.00	0.00	197.2008	1.23
786.50	0.00	197.3161	1.23
787.00	0.00	197.4309	1.23
787.50	0.00	197.5453	1.23
788.00	0.00	197.6592	1.23
788.50	0.00	197.7726	1.23
789.00	0.00	197.8856	1.23
789.50	0.00	197.9982	1.23
790.00	0.00	198.1103	1.23
790.50	0.00	198.2219	1.23
791.00	0.00	198.3330	1.23
791.50	0.00	198.4437	1.23
792.00	0.00	198.5540	1.23
792.50	0.00	198.6637	1.23
793.00	0.00	198.7731	1.23
793.50	0.00	198.8819	1.23
794.00	0.00	198.9903	1.23
794.50	0.00	199.0982	1.23
795.00	0.00	199.2057	1.23
795.50	0.00	199.3127	1.23
796.00	0.00	199.4192	1.23
796.50	0.00	199.5253	1.23
797.00	0.00	199.6308	1.23
797.50	0.00	199.7360	1.23
798.00	0.00	199.8406	1.23
798.50	0.00	199.9448	1.23
799.00	0.00	200.0485	1.23
799.50	0.00	200.1518	1.23
800.00	0.00	200.2545	1.23
800.50	0.00	200.3568	1.23
801.00	0.00	200.4587	1.23
801.50	0.00	200.5600	1.23
802.00	0.00	200.6609	1.23
802.50	0.00	200.7613	1.23
803.00	0.00	200.8612	1.23
803.50	0.00	200.9607	1.23
804.00	0.00	201.0597	1.23
804.50	0.00	201.1582	1.23
805.00	0.00	201.2562	1.23
805.50	0.00	201.3537	1.23
806.00	0.00	201.4508	1.23
806.50	0.00	201.5474	1.23
807.00	0.00	201.6435	1.23
807.50	0.00	201.7391	1.23
808.00	0.00	201.8342	1.23
808.50	0.00	201.9289	1.23
809.00	0.00	202.0231	1.23
809.50	0.00	202.1167	1.23
810.00	0.00	202.2099	1.23
810.50	0.00	202.3026	1.23
811.00	0.00	202.3948	1.23
811.50	0.00	202.4866	1.23
812.00	0.00	202.5778	1.23
812.50	0.00	202.6686	1.23
813.00	0.00	202.7588	1.23
813.50	0.00	202.8486	1.23
814.00	0.00	202.9379	1.23
814.50	0.00	203.0266	1.23
815.00	0.00	203.1149	1.23
815.50	0.00	203.2027	1.23
816.00	0.00	203.2900	1.23
816.50	0.00	203.3768	1.23
817.00	0.00	203.4631	1.23
817.50	0.00	203.5488	1.23
818.00	0.00	203.6341	1.23
818.50	0.00	203.7189	1.23
819.00	0.00	203.8032	1.23
819.50	0.00	203.8870	1.23
820.00	0.00	203.9703	1.23
820.50	0.00	204.0530	1.23
821.00	0.00	204.1353	1.23
821.50	0.00	204.2170	1.23
822.00	0.00	204.2983	1.23
822.50	0.00	204.3790	1.23
823.00	0.00	204.4592	1.23
823.50	0.00	204.5390	1.23
824.00	0.00	204.6182	1.23
824.50	0.00	204.6968	1.23
825.00	0.00	204.7750	1.23
825.50	0.00	204.8527	1.23
826.00	0.00	204.9298	1.23
826.50	0.00	205.0064	1.23
827.00	0.00	205.0825	1.23
827.50	0.00	205.1581	1.23
828.00	0.00	205.2331	1.23
828.50	0.00	205.3077	1.23
829.00	0.00	205.3817	1.23
829.50	0.00	205.4552	1.23
830.00	0.00	205.5281	1.23
830.50	0.00	205.6006	1.23
831.00	0.00	205.6725	1.23
831.50	0.00	205.7438	1.23
832.00	0.00	205.8147	1.23
832.50	0.00	205.8850	1.23
833.00	0.00	205.9548	1.23
833.50	0.00	206.0240	1.23
834.00	0.00	206.0927	1.23
834.50	0.00	206.1609	1.23
835.00	0.00	206.2285	1.23
835.50	0.00	206.2956	1.23
836.00	0.00	206.3622	1.23
836.50	0.00	206.4282	1.23
837.00	0.00	206.4936	1.23
837.50	0.00	206.5586	1.23
838.00	0.00	206.6230	1.23
838.50	0.00	206.6868	1.23
839.00	0.00	206.7501	1.23
839.50	0.00	206.8128	1.23
840.00	0.00	206.8750	1.23
840.50	0.00	206.9367	1.23
841.00	0.00	206.9977	1.23
841.50	0.00	207.0583	1.23
842.00	0.00	207.1183	1.23
842.50	0.00	207.1777	1.23
843.00	0.00	207.2366	1.23
843.50	0.00	207.2949	1.23
844.00	0.00	207.3526	1.23
844.50	0.00	207.4098	1.23
845.00	0.00	207.4664	1.23
845.50	0.00	207.5225	1.23
846.00	0.00	207.5780	1.23
846.50	0.00	207.6329	1.23
847.00	0.00	207.6873	1.23
847.50	0.00	207.7411	1.23
848.00	0.00	207.7943	1.23
848.50	0.00	207.8470	1.23
849.00	0.00	207.8991	1.23
849.50	0.00	207.9506	1.23
850.00	0.00	208.0016	1.23
850.50	0.00	208.0519	1.23
851.00	0.00	208.1017	1.23
851.50	0.00	208.1509	1.23
852.00	0.00	208.1995	1.23
852.50	0.00	208.2476	1.23
853.00	0.00	208.2951	1.23
853.50	0.00	208.3419	1.23
854.00	0.00	208.3882	1.23
854.50	0.00	208.4340	1.23
855.00	0.00	208.4791	1.23
855.50	0.00	208.5236	1.23
856.00	0.00	208.5676	1.23
856.50	0.00	208.6109	1.23
857.00	0.00	208.6537	1.23
857.50	0.00	208.6959	1.23
858.00	0.00	208.7375	1.23
858.50	0.00	208.7784	1.23
859.00	0.00	208.8188	1.23
859.50	0.00	208.8586	1.23
860.00	0.00	208.8978	1.23
860.50	0.00	208.9364	1.23
861.00	0.00	208.9744	1.23
861.50	0.00	209.0117	1.23
862.00	0.00	209.0485	1.23
862.50	0.00	209.0847	1.23
863.00	0.00	209.1202	1.23
863.50	0.00	209.1552	1.23
864.00	0.00	209.1895	1.23
864.50	0.00	209.2233	1.23
865.00	0.00	209.2564	1.23
865.50	0.00	209.2889	1.23
866.00	0.00	209.3208	1.23
866.50	0.00	209.3521	1.23
867.00	0.00	209.3827	1.23
867.50	0.00	209.4127	1.23
868.00	0.00	209.4422	1.23
868.50	0.00	209.4710	1.23
869.00	0.00	209.4991	1.23
869.50	0.00	209.5267	1.23
870.00	0.00	209.5536	1.23
870.50	0.00	209.5799	1.23
871.00	0.00	209.6056	1.23
871.50	0.00	209.6306	1.23
872.00	0.00	209.6550	1.23
872.50	0.00	209.6788	1.23
873.00	0.00	209.7020	1.23
873.50	0.00	209.7245	1.23
874.00	0.00	209.7464	1.23
874.50	0.00	209.7676	1.23
875.00	0.00	209.7883	1.23
875.50	0.00	209.8082	1.23
876.00	0.00	209.8276	1.23
876.50	0.00	209.8463	1.23
877.00	0.00	209.8643	1.23
877.50	0.00	209.8817	1.23
878.00	0.00	209.8985	1.23
878.50	0.00	209.9146	1.23
879.00	0.00	209.9301	1.23
879.50	0.00	209.9450	1.23
880.00	0.00	209.9591	1.23
880.50	0.00	209.9727	1.23
881.00	0.00	209.9856	1.23
881.50	0.00	209.9978	1.23
882.00	0.00	210.0094	1.23
882.50	0.00	210.0203	1.23
883.00	0.00	210.0306	1.23
883.50	0.00	210.0402	1.23
884.00	0.00	210.0492	1.23
884.50	0.00	210.0575	1.23
885.00	0.00	210.0652	1.23
885.50	0.00	210.0722	1.23
886.00	0.00	210.0785	1.23
886.50	0.00	210.0842	1.23
887.00	0.00	210.0892	1.23
887.50	0.00	210.0935	1.23
888.00	0.00	210.0972	1.23
888.50	0.00	210.1002	1.23
889.00	0.00	210.1026	1.23
889.50	0.00	210.1043	1.23
890.00	0.00	210.1053	1.23
890.50	0.00	210.1056	1.23
891.00	0.00	210.1053	1.23
891.50	0.00	210.1043	1.23
892.00	0.00	210.1027	1.23
892.50	0.00	210.1004	1.23
893.00	0.00	210.0974	1.23
893.50	0.00	210.0937	1.23
894.00	0.00	210.0893	1.23
894.50	0.00	210.0843	1.23
895.00	0.00	210.0786	1.23
895.50	0.00	210.0722	1.23
896.00	0.00	210.0652	1.23
896.50	0.00	210.0575	1.23
897.00	0.00	210.0491	1.23
897.50	0.00	210.0400	1.23
898.00	0.00	210.0302	1.23
898.50	0.00	210.0198	1.23
899.00	0.00	210.0086	1.23
899.50	0.00	209.9968	1.23
900.00	0.00	209.9843	1.23
900.50	0.00	209.0132	3.51
901.00	0.00	209.0233	3.51
901.50	0.00	209.0332	3.51
902.00	0.00	209.0426	3.51
902.50	0.00	209.0518	3.51
903.00	0.00	209.0606	3.51
903.50	0.00	209.0690	3.51
904.00	0.00	209.0771	3.51
904.50	0.00	209.0849	3.51
905.00	0.00	209.0923	3.51
905.50	0.00	209.0994	3.51
906.00	0.00	209.1061	3.51
906.50	0.00	209.1125	3.51
907.00	0.00	209.1186	3.51
907.50	0.00	209.1244	3.51
908.00	0.00	209.1298	3.51
908.50	0.00	209.1348	3.51
909.00	0.00	209.1396	3.51
909.50	0.00	209.1440	3.51
910.00	0.00	209.1480	3.51
910.50	0.00	209.1518	3.51
911.00	0.00	209.1552	3.51
911.50	0.00	209.1583	3.51
912.00	0.00	209.1610	3.51
912.50	0.00	209.1634	3.51
913.00	0.00	209.1655	3.51
913.50	0.00	209.1673	3.51
914.00	0.00	209.1687	3.51
914.50	0.00	209.1698	3.51
915.00	0.00	209.1706	3.51
915.50	0.00	209.1711	3.51
916.00	0.00	209.1712	3.51
916.50	0.00	209.1710	3.51
917.00	0.00	209.1705	3.51
917.50	0.00	209.1697	3.51
918.00	0.00	209.1685	3.51
918.50	0.00	209.1670	3.51
919.00	0.00	209.1652	3.51
919.50	0.00	209.1631	3.51
920.00	0.00	209.1607	3.51
920.50	0.00	209.1579	3.51
921.00	0.00	209.1549	3.51
921.50	0.00	209.1515	3.51
922.00	0.00	209.1478	3.51
922.50	0.00	209.1438	3.51
923.00	0.00	209.1394	3.51
923.50	0.00	209.1348	3.51
924.00	0.00	209.1299	3.51
924.50	0.00	209.1246	3.51
925.00	0.00	209.1190	3.51
925.50	0.00	209.1131	3.51
926.00	0.00	209.1069	3.51
926.50	0.00	209.1004	3.51
927.00	0.00	209.0936	3.51
927.50	0.00	209.0865	3.51
928.00	0.00	209.0791	3.51
928.50	0.00	209.0713	3.51
929.00	0.00	209.0633	3.51
929.50	0.00	209.0549	3.51
930.00	0.00	209.0463	3.51
930.50	0.00	209.0373	3.51
931.00	0.00	209.0281	3.51
931.50	0.00	209.0185	3.51
932.00	0.00	209.0087	3.51
932.50	0.00	208.9985	3.51
933.00	0.00	208.9881	3.51
933.50	0.00	208.9773	3.51
934.00	0.00	208.9662	3.51
934.50	0.00	208.9549	3.51
935.00	0.00	208.9432	3.51
935.50	0.00	208.9313	3.51
936.00	0.00	208.9190	3.51
936.50	0.00	208.9065	3.51
937.00	0.00	208.8937	3.51
937.50	0.00	208.8805	3.51
938.00	0.00	208.8671	3.51
938.50	0.00	208.8534	3.51
939.00	0.00	208.8394	3.51
939.50	0.00	208.8251	3.51
940.00	0.00	208.8105	3.51
940.50	0.00	208.7957	3.51
941.00	0.00	208.7805	3.51
941.50	0.00	208.7651	3.51
942.00	0.00	208.7493	3.51
942.50	0.00	208.7333	3.51
943.00	0.00	208.7170	3.51
943.50	0.00	208.7004	3.51
944.00	0.00	208.6835	3.51
944.50	0.00	208.6664	3.51
945.00	0.00	208.6489	3.51
945.50	0.00	208.6312	3.51
946.00	0.00	208.6132	3.51
946.50	0.00	208.5949	3.51
947.00	0.00	208.5763	3.51
947.50	0.00	208.5575	3.51
948.00	0.00	208.5383	3.51
948.50	0.00	208.5189	3.51
949.00	0.00	208.4992	3.51
949.50	0.00	208.4793	3.51
950.00	0.00	208.4590	3.51
950.50	0.00	208.4385	3.51
951.00	0.00	208.4177	3.51
951.50	0.00	208.3967	3.51
952.00	0.00	208.3753	3.51
952.50	0.00	208.3537	3.51
953.00	0.00	208.3319	3.51
953.50	0.00	208.3097	3.51
954.00	0.00	208.2873	3.51
954.50	0.00	208.2646	3.51
955.00	0.00	208.2416	3.51
955.50	0.00	208.2184	3.51
956.00	0.00	208.1949	3.51
956.50	0.00	208.1711	3.51
957.00	0.00	208.1471	3.51
957.50	0.00	208.1228	3.51
958.00	0.00	208.0983	3.51
958.50	0.00	208.0734	3.51
959.00	0.00	208.0483	3.51
959.50	0.00	208.0230	3.51
960.00	0.00	207.9974	3.51
960.50	0.00	207.9715	3.51
961.00	0.00	207.9454	3.51
961.50	0.00	207.9190	3.51
962.00	0.00	207.8923	3.51
962.50	0.00	207.8654	3.51
963.00	0.00	207.8382	3.51
963.50	0.00	207.8108	3.51
964.00	0.00	207.7831	3.51
964.50	0.00	207.7552	3.51
965.00	0.00	207.7270	3.51
965.50	0.00	207.6985	3.51
966.00	0.00	207.6698	3.51
966.50	0.00	207.6408	3.51
967.00	0.00	207.6116	3.51
967.50	0.00	207.5821	3.51
968.00	0.00	207.5524	3.51
968.50	0.00	207.5225	3.51
969.00	0.00	207.4922	3.51
969.50	0.00	207.4618	3.51
970.00	0.00	207.4311	3.51
970.50	0.00	207.4001	3.51
971.00	0.00	207.3689	3.51
971.50	0.00	207.3374	3.51
972.00	0.00	207.3057	3.51
972.50	0.00	207.2738	3.51
973.00	0.00	207.2416	3.51
973.50	0.00	207.2091	3.51
974.00	0.00	207.1764	3.51
974.50	0.00	207.1435	3.51
975.00	0.00	207.1103	3.51
975.50	0.00	207.0769	3.51
976.00	0.00	207.0433	3.51
976.50	0.00	207.0094	3.51
977.00	0.00	206.9753	3.51
977.50	0.00	206.9409	3.51
978.00	0.00	206.9063	3.51
978.50	0.00	206.8714	3.51
979.00	0.00	206.8363	3.51
979.50	0.00	206.8010	3.51
980.00	0.00	206.7655	3.51
980.50	0.00	206.7297	3.51
981.00	0.00	206.6937	3.51
981.50	0.00	206.6574	3.51
982.00	0.00	206.6209	3.51
982.50	0.00	206.5842	3.51
983.00	0.00	206.5473	3.51
983.50	0.00	206.5101	3.51
984.00	0.00	206.4727	3.51
984.50	0.00	206.4350	3.51
985.00	0.00	206.3971	3.51
985.50	0.00	206.3590	3.51
986.00	0.00	206.3207	3.51
986.50	0.00	206.2822	3.51
987.00	0.00	206.2434	3.51
987.50	0.00	206.2044	3.51
988.00	0.00	206.1651	3.51
988.50	0.00	206.1257	3.51
989.00	0.00	206.0860	3.51
989.50	0.00	206.0461	3.51
990.00	0.00	206.0060	3.51
990.50	0.00	205.9656	3.51
991.00	0.00	205.9251	3.51
991.50	0.00	205.8843	3.51
992.00	0.00	205.8433	3.51
992.50	0.00	205.8020	3.51
993.00	0.00	205.7606	3.51
993.50	0.00	205.7189	3.51
994.00	0.00	205.6771	3.51
994.50	0.00	205.6350	3.51
995.00	0.00	205.5926	3.51
995.50	0.00	205.5501	3.51
996.00	0.00	205.5074	3.51
996.50	0.00	205.4644	3.51
997.00	0.00	205.4212	3.51
997.50	0.00	205.3779	3.51
998.00	0.00	205.3343	3.51
998.50	0.00	205.2905	3.51
999.00	0.00	205.2464	3.51
999.50	0.00	205.2022	3.51
1000.00	0.00	205.1578	3.51
[END_OF_LAMPDATA]

# wavelength (nm)	bandwidth (nm)	reflectance	uncertainty (%, k=2)
[PANELDATA]
350.00	0.00	0.9890	1.20
360.00	0.00	0.9890	1.20
370.00	0.00	0.9890	1.20
380.00	0.00	0.9880	1.20
390.00	0.00	0.9870	1.20
400.00	0.00	0.9880	0.50
410.00	0.00	0.9870	0.50
420.00	0.00	0.9900	0.50
430.00	0.00	0.9880	0.50
440.00	0.00	0.9890	0.50
450.00	0.00	0.9890	0.50
460.00	0.00	0.9900	0.50
470.00	0.00	0.9890	0.50
480.00	0.00	0.9890	0.50
490.00	0.00	0.9890	0.50
500.00	0.00	0.9880	0.50
510.00	0.00	0.9880	0.50
520.00	0.00	0.9880	0.50
530.00	0.00	0.9870	0.50
540.00	0.00	0.9870	0.50
550.00	0.00	0.9870	0.30
560.00	0.00	0.9860	0.30
570.00	0.00	0.9860	0.30
580.00	0.00	0.9850	0.30
590.00	0.00	0.9850	0.30
600.00	0.00	0.9850	0.30
610.00	0.00	0.9840	0.30
620.00	0.00	0.9840	0.30
630.00	0.00	0.9840	0.30
640.00	0.00	0.9830	0.30
650.00	0.00	0.9830	0.30
660.00	0.00	0.9830	0.30
670.00	0.00	0.9820	0.30
680.00	0.00	0.9820	0.30
690.00	0.00	0.9810	0.30
700.00	0.00	0.9820	0.30
710.00	0.00	0.9810	0.30
720.00	0.00	0.9800	0.30
730.00	0.00	0.9800	0.30
740.00	0.00	0.9800	0.30
750.00	0.00	0.9790	0.30
760.00	0.00	0.9790	0.30
770.00	0.00	0.9790	0.30
780.00	0.00	0.9770	0.30
790.00	0.00	0.9780	0.30
800.00	0.00	0.9770	0.30
810.00	0.00	0.9760	0.30
820.00	0.00	0.9750	0.30
830.00	0.00	0.9750	0.30
840.00	0.00	0.9760	0.30
850.00	0.00	0.9750	0.30
860.00	0.00	0.9740	0.30
870.00	0.00	0.9740	0.30
880.00	0.00	0.9750	0.30
890.00	0.00	0.9740	0.30
900.00	0.00	0.9740	0.30
910.00	0.00	0.9730	0.30
920.00	0.00	0.9730	0.30
930.00	0.00	0.9730	0.30
940.00	0.00	0.9720	0.30
950.00	0.00	0.9720	0.30
960.00	0.00	0.9720	0.30
970.00	0.00	0.9720	0.30
980.00	0.00	0.9710	0.30
990.00	0.00	0.9710	0.30
1000.00	0.00	0.9710	0.30
1010.00	0.00	0.9710	0.30
1020.00	0.00	0.9700	0.30
1030.00	0.00	0.9700	0.30
1040.00	0.00	0.9700	0.30
1050.00	0.00	0.9700	0.30
1060.00	0.00	0.9700	0.30
1070.00	0.00	0.9700	0.30
1080.00	0.00	0.9690	0.30
1090.00	0.00	0.9700	0.30
1100.00	0.00	0.9720	0.30
1110.00	0.00	0.9710	0.30
1120.00	0.00	0.9710	0.30
1130.00	0.00	0.9710	0.30
1140.00	0.00	0.9700	0.30
1150.00	0.00	0.9700	0.30
1160.00	0.00	0.9690	0.30
1170.00	0.00	0.9680	0.30
1180.00	0.00	0.9690	0.30
1190.00	0.00	0.9690	0.30
1200.00	0.00	0.9690	0.30
1210.00	0.00	0.9690	0.30
1220.00	0.00	0.9690	0.30
1230.00	0.00	0.9690	0.30
1240.00	0.00	0.9690	0.30
1250.00	0.00	0.9690	0.30
1260.00	0.00	0.9690	0.30
1270.00	0.00	0.9680	0.30
1280.00	0.00	0.9680	0.30
1290.00	0.00	0.9680	0.30
1300.00	0.00	0.9670	0.30
1310.00	0.00	0.9670	0.30
1320.00	0.00	0.9670	0.30
1330.00	0.00	0.9670	0.30
1340.00	0.00	0.9670	0.30
1350.00	0.00	0.9660	0.30
1360.00	0.00	0.9650	0.30
1370.00	0.00	0.9640	0.30
1380.00	0.00	0.9640	0.30
1390.00	0.00	0.9630	0.30
1400.00	0.00	0.9630	0.30
1410.00	0.00	0.9630	0.30
1420.00	0.00	0.9630	0.30
1430.00	0.00	0.9630	0.30
1440.00	0.00	0.9630	0.30
1450.00	0.00	0.9630	0.30
1460.00	0.00	0.9630	0.30
1470.00	0.00	0.9630	0.30
1480.00	0.00	0.9630	0.30
1490.00	0.00	0.9630	0.30
1500.00	0.00	0.9630	0.30
1510.00	0.00	0.9630	0.30
1520.00	0.00	0.9630	0.30
1530.00	0.00	0.9620	0.30
1540.00	0.00	0.9620	0.30
1550.00	0.00	0.9620	0.30
1560.00	0.00	0.9620	0.30
1570.00	0.00	0.9610	0.30
1580.00	0.00	0.9610	0.30
1590.00	0.00	0.9620	0.30
1600.00	0.00	0.9610	0.30
1610.00	0.00	0.9600	0.30
1620.00	0.00	0.9600	0.30
1630.00	0.00	0.9590	0.30
1640.00	0.00	0.9580	0.30
1650.00	0.00	0.9550	0.50
1660.00	0.00	0.9540	0.50
1670.00	0.00	0.9530	0.50
1680.00	0.00	0.9480	0.50
1690.00	0.00	0.9460	0.50
1700.00	0.00	0.9520	0.50
[END_OF_PANELDATA]

[AMBIENT_TEMP]
21.0

# pixel no	wavelength (nm)	irradiane responsivity (unit depends on the device class)	uncertainty (%, k=2)	dark1	dark2 (content depends on the instrument class)	raw1	stdev1	raw2	stdev2
[CALDATA]
0	302.16	4	0.00	12	0.000000	64	0.00	32	0.00
1	305.49	0.000000	0.00	0.017334	0.028204	44.20	0.83	47.90	1.64
2	308.83	0.000000	0.00	0.017226	0.027845	53.90	0.73	53.90	1.65
3	312.16	0.000000	0.00	0.017235	0.027952	66.94	0.76	69.30	1.33
4	315.49	0.000000	0.00	0.017331	0.027538	90.24	0.75	88.36	1.41
5	318.83	0.000000	0.00	0.017291	0.028202	124.90	0.89	122.36	1.95
6	322.16	0.000000	0.00	0.017287	0.027699	175.27	0.81	174.90	1.65
7	325.50	0.000000	0.00	0.017261	0.027933	242.27	0.85	244.10	1.68
8	328.83	0.000000	0.00	0.017285	0.027836	334.34	0.77	336.16	1.81
9	332.17	0.000000	0.00	0.017293	0.027876	450.80	0.83	450.50	1.60
10	335.50	0.000000	0.00	0.017280	0.028015	588.10	0.82	587.50	1.54
11	338.84	0.000000	0.00	0.017264	0.027868	737.07	0.77	737.90	1.69
12	342.18	0.000000	0.00	0.017283	0.027764	889.57	0.77	889.03	1.94
13	345.51	0.000000	0.00	0.017266	0.027623	1023.34	0.74	1023.03	1.78
14	348.85	0.000000	0.00	0.017293	0.028045	1132.47	0.84	1132.70	1.65
15	352.19	1.032435	2.39	0.017278	0.027926	1214.54	0.72	1213.10	1.46
16	355.53	1.001707	2.41	0.017290	0.027767	1271.27	0.75	1271.30	1.82
17	358.87	0.964564	2.40	0.017282	0.027739	1320.37	0.81	1320.83	1.82
18	362.20	0.932880	2.39	0.017297	0.027816	1370.20	0.70	1373.43	1.69
19	365.54	0.906309	2.38	0.017283	0.027803	1436.54	0.84	1437.36	1.71
20	368.88	0.898482	2.38	0.017294	0.027975	1528.40	0.79	1529.43	1.81
21	372.22	0.908184	2.37	0.017282	0.027842	1658.17	0.85	1657.76	1.74
22	375.56	0.940019	2.36	0.017283	0.027850	1830.27	0.79	1832.43	1.51
23	378.91	0.983388	2.36	0.017290	0.027862	2052.84	0.88	2051.03	1.65
24	382.25	1.049897	2.34	0.017288	0.028073	2332.64	0.97	2332.50	1.94
25	385.59	1.130233	2.32	0.017297	0.027984	2674.20	0.88	2673.43	1.90
26	388.93	1.228576	2.29	0.017290	0.027881	3086.40	0.79	3087.16	1.51
27	392.27	1.337817	2.18	0.017290	0.027640	3567.94	0.83	3569.23	1.57
28	395.61	1.452058	2.06	0.017305	0.027549	4110.20	0.85	4110.30	1.75
29	398.96	1.569925	1.96	0.017293	0.027821	4706.10	0.87	4706.63	1.84
30	402.30	1.683278	1.91	0.017307	0.027572	5335.80	0.94	5336.10	2.07
31	405.64	1.786779	1.89	0.017297	0.027580	5977.77	0.89	5979.10	1.79
32	408.98	1.873125	1.87	0.017309	0.027705	6608.20	0.95	6609.56	1.82
33	412.33	1.933747	1.84	0.017299	0.027793	7193.67	0.83	7194.23	2.03
34	415.67	1.971966	1.82	0.017303	0.027938	7717.24	0.90	7723.03	1.65
35	419.01	1.984651	1.80	0.017295	0.027853	8174.34	0.91	8179.50	1.66
36	422.36	1.976147	1.78	0.017320	0.028126	8546.24	0.86	8550.83	1.72
37	425.70	1.950608	1.76	0.017280	0.027737	8845.27	0.99	8848.36	2.24
38	429.05	1.913825	1.74	0.017318	0.027810	9083.04	0.97	9088.10	1.77
39	432.39	1.868073	1.71	0.017306	0.027659	9285.80	1.06	9288.23	1.77
40	435.73	1.823727	1.69	0.017310	0.027999	9471.87	0.89	9479.63	2.13
41	439.08	1.782496	1.67	0.017300	0.027842	9675.67	0.79	9682.90	1.98
42	442.42	1.745910	1.67	0.017328	0.027830	9888.50	1.03	9897.50	1.98
43	445.77	1.714509	1.67	0.017286	0.027450	10121.60	0.85	10132.63	1.98
44	449.11	1.685703	1.67	0.017320	0.027446	10372.64	1.05	10381.16	1.70
45	452.46	1.660798	1.67	0.017308	0.027687	10637.40	1.09	10647.16	2.16
46	455.80	1.643955	1.67	0.017332	0.027726	10955.10	0.92	10964.56	2.24
47	459.15	1.636243	1.66	0.017320	0.027798	11338.90	1.00	11346.10	1.77
48	462.49	1.640075	1.66	0.017323	0.027781	11790.20	1.14	11801.63	1.94
49	465.83	1.654220	1.66	0.017311	0.027670	12334.24	1.11	12345.36	2.03
50	469.18	1.678892	1.66	0.017328	0.027779	12969.74	0.98	12982.56	1.90
51	472.52	1.712616	1.66	0.017322	0.027743	13698.44	1.27	13714.23	2.31
52	475.87	1.753458	1.66	0.017330	0.027723	14514.04	1.13	14532.03	2.23
53	479.21	1.796899	1.66	0.017315	0.027961	15375.67	1.17	15398.70	2.18
54	482.56	1.836301	1.66	0.017338	0.027811	16238.77	1.50	16263.70	2.04
55	485.90	1.871993	1.66	0.017316	0.027599	17098.10	1.31	17124.23	2.49
56	489.25	1.907370	1.66	0.017333	0.027918	17964.64	1.55	18000.23	2.29
57	492.59	1.942435	1.66	0.017331	0.027578	18864.10	1.57	18901.96	2.37
58	495.94	1.982226	1.66	0.017328	0.027868	19822.17	1.51	19868.90	2.14
59	499.28	2.023470	1.66	0.017323	0.027426	20831.84	1.33	20883.36	2.21
60	502.63	2.065339	1.66	0.017350	0.027650	21884.97	1.20	21940.43	2.50
61	505.97	2.109114	1.66	0.017331	0.027587	22975.44	1.35	23042.50	2.36
62	509.31	2.148496	1.66	0.017341	0.027961	24049.40	1.39	24127.23	2.53
63	512.66	2.183705	1.66	0.017338	0.027910	25107.34	1.54	25194.03	2.72
64	516.00	2.214133	1.66	0.017331	0.027637	26130.80	1.53	26228.03	2.52
65	519.35	2.236010	1.66	0.017333	0.027778	27083.64	1.66	27185.76	2.45
66	522.69	2.253149	1.66	0.017348	0.027694	27971.97	1.82	28086.16	2.72
67	526.03	2.265452	1.66	0.017335	0.027867	28812.77	1.70	28937.30	2.53
68	529.38	2.271977	1.66	0.017354	0.027676	29587.90	1.66	29722.36	2.96
69	532.72	2.270188	1.66	0.017333	0.027610	30268.34	1.88	30411.10	2.56
70	536.06	2.260998	1.66	0.017350	0.027770	30839.74	2.02	30995.43	2.71
71	539.40	2.237146	1.66	0.017335	0.027615	31203.04	2.18	31369.96	3.17
72	542.75	2.196510	1.64	0.017348	0.027679	31317.27	1.92	31491.70	2.86
73	546.09	2.138693	1.63	0.017338	0.027992	31173.07	1.85	31344.76	2.77
74	549.43	2.066502	1.61	0.017350	0.027635	30773.40	1.97	30943.36	2.74
75	552.77	1.991335	1.61	0.017328	0.027741	30270.94	1.77	30440.10	2.99
76	556.11	1.915447	1.61	0.017343	0.027719	29730.64	2.16	29887.16	2.49
77	559.45	1.844459	1.61	0.017340	0.027629	29196.54	1.54	29352.03	2.81
78	562.79	1.779403	1.61	0.017351	0.027757	28725.50	1.55	28877.90	2.58
79	566.13	1.720249	1.61	0.017341	0.027665	28314.50	1.49	28462.30	2.89
80	569.47	1.665744	1.61	0.017352	0.027607	27935.30	1.73	28082.43	2.38
81	572.81	1.616173	1.61	0.017328	0.027800	27603.30	1.68	27746.63	2.54
82	576.15	1.571393	1.61	0.017345	0.027645	27311.20	1.55	27455.63	2.13
83	579.49	1.529442	1.61	0.017337	0.027764	27051.50	1.60	27191.10	2.75
84	582.83	1.491762	1.61	0.017358	0.027530	26838.37	1.46	26978.43	2.33
85	586.17	1.457817	1.61	0.017334	0.027763	26668.20	1.40	26809.56	2.77
86	589.51	1.426746	1.61	0.017351	0.027745	26531.67	1.59	26672.76	2.83
87	592.85	1.399630	1.61	0.017331	0.027778	26450.54	1.33	26590.56	2.58
88	596.18	1.376495	1.61	0.017365	0.027764	26413.24	1.40	26559.23	2.47
89	599.52	1.355714	1.61	0.017335	0.027631	26413.54	1.65	26561.43	2.71
90	602.86	1.340767	1.61	0.017362	0.027726	26506.57	1.29	26656.70	2.22
91	606.19	1.330925	1.61	0.017330	0.027921	26688.27	1.53	26841.36	2.67
92	609.53	1.327076	1.61	0.017356	0.027937	26974.80	1.52	27135.50	2.49
93	612.86	1.328673	1.61	0.017357	0.027845	27378.77	1.70	27546.23	2.41
94	616.20	1.334483	1.61	0.017358	0.027872	27863.04	1.69	28041.03	2.40
95	619.53	1.340174	1.61	0.017339	0.027801	28352.00	1.70	28536.76	2.56
96	622.86	1.342553	1.61	0.017372	0.027739	28775.37	1.68	28963.50	2.53
97	626.20	1.339781	1.60	0.017344	0.027838	29064.27	1.64	29265.10	2.33
98	629.53	1.329189	1.60	0.017360	0.028028	29202.50	1.72	29401.56	2.58
99	632.86	1.315496	1.60	0.017347	0.027749	29237.34	1.60	29442.16	3.00
100	636.19	1.298440	1.60	0.017355	0.027543	29198.10	1.75	29400.96	2.43
101	639.52	1.281321	1.60	0.017351	0.028016	29142.70	1.72	29344.36	2.45
102	642.85	1.266784	1.60	0.017354	0.028105	29135.97	1.71	29339.96	2.79
103	646.18	1.253789	1.60	0.017347	0.027832	29159.37	1.62	29363.70	2.53
104	649.51	1.244749	1.60	0.017348	0.028018	29264.97	1.52	29470.30	3.01
105	652.84	1.238088	1.60	0.017353	0.027831	29415.24	1.66	29623.56	2.63
106	656.17	1.233254	1.60	0.017346	0.027929	29601.10	1.79	29813.16	2.38
107	659.50	1.228759	1.60	0.017351	0.028072	29790.34	1.82	30005.36	2.70
108	662.82	1.225025	1.60	0.017359	0.027675	29972.60	1.66	30196.03	2.84
109	666.15	1.219632	1.60	0.017353	0.027809	30120.84	1.87	30345.10	2.55
110	669.48	1.213666	1.60	0.017358	0.027738	30245.54	1.67	30471.76	2.62
111	672.80	1.205711	1.60	0.017337	0.027818	30327.34	1.73	30552.50	2.76
112	676.13	1.196890	1.60	0.017365	0.027907	30368.20	1.82	30598.56	2.59
113	679.45	1.187432	1.60	0.017338	0.027833	30390.24	1.92	30622.90	2.85
114	682.77	1.177927	1.60	0.017352	0.028004	30397.97	1.85	30630.96	2.88
115	686.09	1.168064	1.60	0.017355	0.027757	30382.94	1.69	30617.96	2.56
116	689.42	1.159725	1.60	0.017351	0.027628	30399.34	1.37	30636.83	2.36
117	692.74	1.150910	1.60	0.017347	0.028146	30421.84	1.75	30657.23	2.70
118	696.06	1.142183	1.60	0.017348	0.027713	30437.47	1.65	30673.43	2.42
119	699.38	1.133485	1.60	0.017346	0.028025	30440.70	1.70	30680.10	2.69
120	702.69	1.122681	1.60	0.017362	0.027698	30369.60	1.75	30608.50	2.87
121	706.01	1.108644	1.60	0.017347	0.027535	30197.80	1.86	30435.83	2.84
122	709.33	1.091895	1.60	0.017357	0.028036	29947.90	1.76	30181.76	2.65
123	712.65	1.072281	1.60	0.017353	0.027807	29613.10	1.84	29840.10	2.55
124	715.96	1.051322	1.60	0.017355	0.027670	29223.47	1.36	29446.63	2.91
125	719.28	1.030677	1.60	0.017339	0.027970	28829.77	1.71	29050.03	2.48
126	722.59	1.010897	1.60	0.017359	0.027824	28466.84	1.57	28679.63	2.31
127	725.90	0.993227	1.60	0.017350	0.027816	28143.94	1.53	28355.43	2.86
128	729.22	0.978138	1.60	0.017357	0.028084	27892.30	1.59	28099.43	2.89
129	732.53	0.963700	1.60	0.017342	0.028063	27652.27	1.57	27854.50	2.36
130	735.84	0.950027	1.60	0.017354	0.027696	27417.24	1.92	27619.23	2.28
131	739.15	0.936061	1.60	0.017333	0.027826	27167.97	1.33	27368.70	2.22
132	742.46	0.920231	1.60	0.017345	0.027906	26854.10	1.56	27051.03	2.53
133	745.76	0.902521	1.60	0.017342	0.027881	26481.47	1.49	26670.90	2.58
134	749.07	0.883740	1.60	0.017346	0.027954	26056.90	1.31	26244.63	2.43
135	752.38	0.862482	1.60	0.017340	0.027845	25568.44	1.44	25748.16	2.54
136	755.68	0.840308	1.60	0.017343	0.027833	25039.70	1.40	25214.36	2.36
137	758.99	0.817882	1.60	0.017330	0.027732	24498.34	1.61	24665.76	2.15
138	762.29	0.796162	1.60	0.017333	0.027769	23972.30	1.21	24131.03	2.45
139	765.59	0.776694	1.60	0.017335	0.027917	23499.37	1.36	23652.96	2.20
140	768.89	0.759594	1.60	0.017348	0.027847	23086.50	1.54	23237.43	2.22
141	772.19	0.744056	1.60	0.017347	0.027758	22705.14	1.36	22853.10	2.61
142	775.49	0.730075	1.60	0.017345	0.028044	22356.37	1.37	22503.56	2.07
143	778.79	0.716157	1.60	0.017323	0.027581	22011.17	1.38	22154.03	2.15
144	782.09	0.700263	1.60	0.017335	0.027788	21624.47	1.42	21757.23	2.58
145	785.39	0.683383	1.60	0.017343	0.027763	21189.74	1.23	21321.83	1.95
146	788.68	0.663874	1.60	0.017342	0.027805	20680.20	1.44	20804.30	2.77
147	791.98	0.641968	1.60	0.017337	0.027642	20075.24	1.42	20193.43	2.37
148	795.27	0.617999	1.60	0.017333	0.027820	19390.90	1.09	19503.96	2.30
149	798.56	0.591989	1.60	0.017325	0.028095	18641.94	1.19	18746.23	2.42
150	801.85	0.564689	1.60	0.017343	0.028167	17842.07	1.06	17938.90	2.12
151	805.14	0.536981	1.60	0.017336	0.028117	17024.37	0.96	17112.56	2.34
152	808.43	0.509558	1.60	0.017334	0.027870	16208.14	1.10	16288.10	2.07
153	811.72	0.483122	1.60	0.017332	0.027916	15412.14	1.05	15486.36	2.22
154	815.01	0.458149	1.60	0.017339	0.028168	14661.34	1.02	14727.76	1.95
155	818.29	0.435234	1.60	0.017321	0.028225	13966.74	1.10	14027.76	1.96
156	821.58	0.414001	1.60	0.017344	0.028001	13323.97	1.13	13379.50	2.08
157	824.86	0.394990	1.60	0.017338	0.027787	12750.47	1.12	12800.70	1.87
158	828.14	0.377791	1.60	0.017345	0.028084	12219.67	1.09	12270.56	1.96
159	831.42	0.361910	1.60	0.017318	0.027941	11739.97	0.99	11786.36	1.86
160	834.70	0.347201	1.60	0.017330	0.027870	11295.00	0.84	11337.90	1.60
161	837.98	0.333472	1.60	0.017335	0.027849	10875.34	0.86	10916.36	2.09
162	841.26	0.320285	1.60	0.017342	0.027748	10475.57	1.08	10510.63	2.01
163	844.54	0.308059	1.60	0.017331	0.027922	10085.34	0.95	10121.96	2.09
164	847.81	0.295820	1.60	0.017334	0.027954	9701.80	0.96	9735.23	1.85
165	851.08	0.283508	1.60	0.017334	0.028094	9316.00	0.86	9345.03	1.93
166	854.36	0.271743	1.60	0.017335	0.027855	8942.74	0.88	8969.10	1.71
167	857.63	0.260070	1.60	0.017329	0.028180	8565.17	0.92	8591.56	1.86
168	860.90	0.248522	1.60	0.017328	0.027946	8195.57	0.85	8219.56	2.03
169	864.17	0.237150	1.60	0.017321	0.027723	7831.57	0.78	7853.36	2.08
170	867.43	0.226280	1.60	0.017342	0.027971	7477.47	0.81	7499.56	1.80
171	870.70	0.215776	1.60	0.017321	0.027650	7142.70	0.79	7160.96	1.63
172	873.97	0.205890	1.60	0.017325	0.027805	6826.27	0.79	6841.96	1.86
173	877.23	0.196752	1.60	0.017318	0.027663	6524.04	0.91	6541.76	1.62
174	880.49	0.188261	1.60	0.017345	0.027742	6249.74	0.95	6265.30	1.93
175	883.75	0.180740	1.60	0.017324	0.028147	6000.74	0.84	6015.36	1.83
176	887.01	0.173713	1.60	0.017340	0.027921	5768.40	0.87	5781.63	1.88
177	890.27	0.167171	1.60	0.017318	0.027718	5553.67	0.74	5564.50	1.90
178	893.53	0.161178	1.61	0.017322	0.027686	5352.90	0.80	5364.03	1.88
179	896.78	0.155410	1.61	0.017312	0.027755	5158.94	0.74	5170.36	1.98
180	900.04	0.000000	0.00	0.017340	0.027939	4980.64	0.77	4991.76	1.74
181	903.29	0.000000	0.00	0.017323	0.028189	4806.14	0.84	4819.63	1.78
182	906.54	0.000000	0.00	0.017326	0.027958	4635.10	0.74	4645.70	1.74
183	909.79	0.000000	0.00	0.017316	0.028118	4468.20	0.85	4478.30	1.88
184	913.04	0.000000	0.00	0.017326	0.027742	4304.94	0.82	4314.43	1.71
185	916.29	0.000000	0.00	0.017316	0.027883	4142.17	0.75	4151.56	1.53
186	919.53	0.000000	0.00	0.017334	0.027691	3985.47	0.87	3994.83	1.62
187	922.78	0.000000	0.00	0.017315	0.027913	3830.70	0.79	3837.30	1.71
188	926.02	0.000000	0.00	0.017332	0.027902	3674.44	0.80	3679.30	1.91
189	929.26	0.000000	0.00	0.017306	0.027906	3512.60	0.86	3519.30	1.60
190	932.50	0.000000	0.00	0.017327	0.027909	3345.64	0.68	3351.56	1.58
191	935.74	0.000000	0.00	0.017303	0.028016	3172.20	0.73	3177.76	1.84
192	938.97	0.000000	0.00	0.017322	0.027782	2997.27	0.70	3003.36	1.54
193	942.21	0.000000	0.00	0.017319	0.027577	2831.67	0.69	2839.16	1.83
194	945.44	0.000000	0.00	0.017319	0.027728	2686.44	0.83	2690.90	1.85
195	948.67	0.000000	0.00	0.017298	0.028004	2554.70	0.90	2560.50	1.58
196	951.90	0.000000	0.00	0.017311	0.027890	2432.47	0.81	2438.50	1.67
197	955.13	0.000000	0.00	0.017306	0.027791	2318.24	0.78	2321.56	1.78
198	958.36	0.000000	0.00	0.017317	0.027992	2209.64	0.88	2212.43	1.76
199	961.59	0.000000	0.00	0.017289	0.027641	2106.27	0.82	2111.16	1.37
200	964.81	0.000000	0.00	0.017304	0.028006	2008.77	0.74	2011.83	1.46
201	968.03	0.000000	0.00	0.017309	0.027709	1917.67	0.76	1921.76	1.66
202	971.25	0.000000	0.00	0.017322	0.027941	1829.80	0.89	1832.56	1.55
203	974.47	0.000000	0.00	0.017306	0.027849	1746.44	0.86	1748.63	1.83
204	977.69	0.000000	0.00	0.017311	0.027928	1663.80	0.92	1669.16	1.54
205	980.90	0.000000	0.00	0.017307	0.027984	1583.84	0.72	1583.10	1.76
206	984.12	0.000000	0.00	0.017302	0.027893	1506.94	0.80	1509.43	1.80
207	987.33	0.000000	0.00	0.017309	0.027716	1429.74	0.78	1434.23	1.73
208	990.54	0.000000	0.00	0.017315	0.027838	1351.87	0.78	1353.83	1.59
209	993.75	0.000000	0.00	0.017302	0.027986	1277.30	0.75	1279.03	1.77
210	996.96	0.000000	0.00	0.017326	0.027952	1202.34	0.89	1205.43	1.63
211	1000.16	0.000000	0.00	0.017306	0.027707	1128.57	0.79	1130.90	1.59
212	1003.37	0.000000	0.00	0.017312	0.027748	1055.37	0.78	1057.10	1.86
213	1006.57	0.000000	0.00	0.017304	0.027751	982.07	0.75	982.36	1.55
214	1009.77	0.000000	0.00	0.017320	0.027976	908.70	0.74	910.43	1.75
215	1012.97	0.000000	0.00	0.017307	0.028148	835.14	0.74	840.10	1.52
216	1016.16	0.000000	0.00	0.017317	0.027772	759.17	0.74	759.90	1.59
217	1019.36	0.000000	0.00	0.017315	0.027768	678.04	0.93	679.70	1.76
218	1022.55	0.000000	0.00	0.017317	0.027891	599.37	0.79	601.43	1.62
219	1025.74	0.000000	0.00	0.017312	0.027921	523.34	0.89	521.76	1.84
220	1028.93	0.000000	0.00	0.017316	0.027633	449.17	0.81	448.56	1.62
221	1032.12	0.000000	0.00	0.017295	0.027946	380.54	0.64	382.96	1.54
222	1035.31	0.000000	0.00	0.017310	0.028230	318.20	0.77	319.23	1.68
223	1038.49	0.000000	0.00	0.017304	0.028083	261.00	0.75	261.76	1.79
224	1041.67	0.000000	0.00	0.017314	0.028112	211.04	0.79	209.50	1.67
225	1044.85	0.000000	0.00	0.017304	0.028137	165.74	0.72	168.10	1.61
226	1048.03	0.000000	0.00	0.017326	0.027855	131.24	0.74	131.70	1.61
227	1051.21	0.000000	0.00	0.017317	0.027974	101.37	0.78	99.90	1.70
228	1054.38	0.000000	0.00	0.017305	0.027776	75.24	0.75	78.16	1.80
229	1057.55	0.000000	0.00	0.017311	0.027939	58.57	0.64	57.23	1.53
230	1060.72	0.000000	0.00	0.017325	0.027956	45.94	0.77	45.63	1.81
231	1063.89	0.000000	0.00	0.017299	0.027962	37.14	0.64	39.36	1.61
232	1067.06	0.000000	0.00	0.017324	0.028009	31.37	0.73	31.83	1.57
233	1070.22	0.000000	0.00	0.017311	0.027999	25.04	0.86	26.90	1.68
234	1073.39	0.000000	0.00	0.017306	0.027969	21.60	0.68	22.76	1.61
235	1076.55	0.000000	0.00	0.017303	0.027800	17.94	0.83	19.76	1.67
236	1079.71	0.000000	0.00	0.017317	0.027936	15.27	0.81	15.83	1.83
237	1082.86	0.000000	0.00	0.017292	0.028014	11.97	0.69	10.83	1.50
238	1086.02	0.000000	0.00	0.017313	0.028094	8.74	0.80	9.30	1.86
239	1089.17	0.000000	0.00	0.017314	0.028144	5.47	0.76	4.90	1.66
240	1092.32	0.000000	0.00	0.017326	0.027932	3.30	0.85	2.90	1.37
241	1095.47	0.000000	0.00	0.017310	0.027916	2.57	0.82	2.83	1.77
242	1098.62	0.000000	0.00	0.017320	0.027838	1.54	0.74	0.36	1.75
243	1101.76	0.000000	0.00	0.017322	0.027830	-1.10	0.76	2.56	1.54
244	1104.90	0.000000	0.00	0.017333	0.027786	0.00	0.76	-1.70	1.92
245	1108.04	0.000000	0.00	0.017310	0.027681	-1.46	0.69	-3.24	1.63
246	1111.18	0.000000	0.00	0.017327	0.027896	-2.96	0.74	-1.70	1.73
247	1114.32	0.000000	0.00	0.017332	0.028253	-1.73	0.86	-4.10	1.51
248	1117.45	0.000000	0.00	0.017337	0.027894	-2.63	0.75	-3.30	1.45
249	1120.58	0.000000	0.00	0.017325	0.028021	-3.26	0.90	-1.44	1.90
250	1123.71	0.000000	0.00	0.017353	0.027706	-3.73	0.83	-2.44	1.53
251	1126.84	0.000000	0.00	0.017355	0.027836	-3.90	0.85	-4.64	1.65
252	1129.97	0.000000	0.00	0.017361	0.027727	-4.50	0.77	-2.90	1.77
253	1133.09	0.000000	0.00	0.017384	0.027711	-3.73	0.75	-4.50	1.81
254	1136.21	0.000000	0.00	0.017478	0.027877	-4.60	0.83	-3.70	1.61
255	1139.33	0.000000	0.00	0.017901	0.029057	-5.26	0.81	-6.10	1.60
[END_OF_CALDATA]
